time (s)	coil I (A)	last det (V)	int current (uC)
644.512035	0.333901	-392.480469	97.949219
644.514037	0.650996	-392.480469	97.949219
644.518035	0.829380	-392.480469	97.949219
644.520038	0.827586	9.103448	0.373865
645.590094	0.433809	-365.429687	-5.859375
645.592096	0.737224	-365.429687	-5.859375
645.594097	0.830931	-365.429687	-5.859375
645.596096	0.828133	9.109466	0.376844
646.590195	0.548639	-390.039062	82.812500
646.592196	0.803709	-390.039062	82.812500
646.594197	0.828870	-390.039062	82.812500
646.596197	0.826821	9.095029	0.389165
647.666714	0.505072	-355.566406	-17.382812
647.668717	0.783255	-355.566406	-17.382812
647.670718	0.829751	-355.566406	-17.382812
647.674715	0.825884	9.084722	0.369390
648.666721	0.376241	-392.675781	79.882812
648.668722	0.690005	-392.675781	79.882812
648.672721	0.829579	-392.675781	79.882812
648.674723	0.827759	9.105345	0.391544
649.743275	0.779525	-378.710937	3.906250
649.745278	0.830322	-378.710937	3.906250
649.747279	0.827863	9.106497	0.381070
650.745323	0.489285	-398.730469	91.113281
650.747327	0.774511	-398.730469	91.113281
650.751323	0.827857	-398.730469	91.113281
650.753328	0.826478	9.091262	0.417296
651.817321	0.567059	-363.476562	-12.500000
651.819322	0.810998	-363.476562	-12.500000
651.821322	0.829236	-363.476562	-12.500000
651.823321	0.827131	9.098441	0.433005
652.823357	0.562098	-400.781250	93.066406
652.825360	0.809274	-400.781250	93.066406
652.827359	0.829363	-400.781250	93.066406
652.829359	0.827305	9.100355	0.445043
653.893428	0.419590	-358.593750	-16.894531
653.895431	0.726282	-358.593750	-16.894531
653.897430	0.831538	-358.593750	-16.894531
653.899430	0.828729	9.116014	0.379929
654.899435	0.568373	-398.828125	93.847656
654.901437	0.576726	-398.828125	93.847656
654.903438	0.813329	-398.828125	93.847656
654.905437	0.827118	9.098299	0.475086
655.971497	0.258713	-360.644531	-12.597656
655.973501	0.580364	-360.644531	-12.597656
655.975500	0.815098	-360.644531	-12.597656
655.977503	0.828902	-360.644531	-12.597656
655.979499	0.827005	9.097058	0.395976
656.975493	0.681976	-389.550781	77.148437
656.977495	0.829756	-389.550781	77.148437
656.979495	0.827966	9.107631	0.409695
658.055516	0.827900	-369.042969	-0.585937
658.057519	0.827858	9.106435	0.401581
659.048079	0.372469	-382.128906	74.218750
659.050080	0.686671	-382.128906	74.218750
659.052079	0.830972	-382.128906	74.218750
659.054079	0.828857	9.117424	0.421863
660.128071	0.603493	-350.488281	-16.015625
660.130075	0.821321	-350.488281	-16.015625
660.132082	0.829112	-350.488281	-16.015625
660.134086	0.827184	9.099026	0.588863
661.126091	0.693288	-382.324219	87.304687
661.128094	0.829965	-382.324219	87.304687
661.130093	0.827814	9.105956	0.422347
662.204677	0.573771	-344.238281	-17.871094
662.206682	0.813117	-344.238281	-17.871094
662.208679	0.829063	-344.238281	-17.871094
662.210681	0.827058	9.097634	0.482489
663.200722	2.015078	-378.222656	96.972656
663.202726	0.587315	-378.222656	96.972656
663.204723	0.817469	-378.222656	96.972656
663.206724	0.829479	-378.222656	96.972656
663.208724	0.827515	9.102669	0.428378
664.278775	0.389547	-343.066406	-16.406250
664.280775	0.701518	-343.066406	-16.406250
664.282775	0.831181	-343.066406	-16.406250
664.286775	0.827062	9.097688	0.413783
665.280787	0.585209	-370.410156	87.988281
665.282788	0.816427	-370.410156	87.988281
665.284790	0.828839	-370.410156	87.988281
665.286789	0.826861	9.095472	0.546930
666.355771	0.822190	-347.851562	-11.035156
666.357771	0.828799	-347.851562	-11.035156
666.359772	0.826882	9.095702	0.633049
667.362342	0.588197	-373.730469	99.707031
667.364344	0.817217	-373.730469	99.707031
667.366345	0.829054	-373.730469	99.707031
667.370342	0.825687	9.082560	0.579145
668.424335	0.535608	-332.519531	-33.398437
668.426337	0.798576	-332.519531	-33.398437
668.428337	0.829607	-332.519531	-33.398437
668.430336	0.827337	9.100709	0.402956
669.446821	0.829315	-370.800781	83.007812
669.448825	0.826956	-370.800781	83.007812
669.450824	0.825558	9.081133	0.429345
670.495396	0.376284	-342.480469	-26.464844
670.497395	0.689955	-342.480469	-26.464844
670.499395	0.829975	-342.480469	-26.464844
670.501394	0.827926	9.107187	0.426627
671.523356	0.406280	-383.300781	94.921875
671.525357	0.716093	-383.300781	94.921875
671.527358	0.833540	-383.300781	94.921875
671.529359	0.831062	9.141680	0.452445
672.569337	0.531342	-342.871094	-30.078125
672.571339	0.796363	-342.871094	-30.078125
672.573338	0.829218	-342.871094	-30.078125
672.577337	0.825694	9.082630	0.437894
673.603301	0.478989	-388.574219	84.375000
673.605304	0.767983	-388.574219	84.375000
673.607303	0.829947	-388.574219	84.375000
673.609304	0.829860	9.128457	0.462953
674.645304	0.462166	-346.875000	-28.027344
674.647306	0.757078	-346.875000	-28.027344
674.649307	0.829802	-346.875000	-28.027344
674.651306	0.827233	9.099566	0.427120
675.674757	2.647615	-395.507812	80.566406
675.680106	0.790013	-395.507812	80.566406
675.682104	0.830251	-395.507812	80.566406
675.684105	0.827783	9.105610	0.457752
676.724682	0.444120	-358.496094	-18.457031
676.726683	0.744742	-358.496094	-18.457031
676.728683	0.830678	-358.496094	-18.457031
676.730684	0.827895	9.106842	0.445606
677.752727	0.797411	-410.156250	100.976562
677.754729	0.829629	-410.156250	100.976562
677.756729	0.827424	9.101666	0.475513
678.808715	0.791187	-369.433594	-7.421875
678.810720	0.829117	-369.433594	-7.421875
678.812723	0.826908	9.095986	0.459713
679.825231	0.813105	-411.132812	102.929687
679.827233	0.829339	-411.132812	102.929687
679.829235	0.827282	9.100107	0.540382
680.885249	0.350481	-352.539062	-22.167969
680.887250	0.666404	-352.539062	-22.167969
680.889250	0.830114	-352.539062	-22.167969
680.891248	0.829184	9.121022	0.428294
681.895762	0.516645	-402.050781	89.355469
681.897764	0.789214	-402.050781	89.355469
681.899762	0.829281	-402.050781	89.355469
681.901764	0.827079	9.097874	0.480903
682.967822	0.764300	-347.656250	-24.023437
682.969824	0.830404	-347.656250	-24.023437
682.971824	0.827729	9.105017	0.453322
683.968326	0.267031	-391.601562	76.171875
683.970327	0.587709	-391.601562	76.171875
683.972328	0.817374	-391.601562	76.171875
683.974329	0.829168	-391.601562	76.171875
683.976328	0.827222	9.099442	0.448999
685.044360	0.486007	-362.402344	-5.859375
685.048360	0.830368	-362.402344	-5.859375
685.050361	0.827782	-362.402344	-5.859375
685.052361	0.826358	9.089933	0.461169
686.044963	0.449230	-397.753906	100.585937
686.046966	0.748189	-397.753906	100.585937
686.048965	0.829967	-397.753906	100.585937
686.052964	0.825853	9.084385	0.480072
687.122978	0.650139	-362.011719	-4.199219
687.124981	0.828101	-362.011719	-4.199219
687.126980	0.828335	9.111691	0.811306
688.121943	0.618147	-395.312500	102.148437
688.123947	0.824184	-395.312500	102.148437
688.125946	0.828816	-395.312500	102.148437
688.129945	0.825727	9.082994	0.476045
689.199958	0.696243	-352.734375	-12.109375
689.201961	0.830634	-352.734375	-12.109375
689.203960	0.828244	9.110688	0.464110
690.197972	0.567242	-388.476562	84.765625
690.199975	0.810728	-388.476562	84.765625
690.201974	0.829016	-388.476562	84.765625
690.203975	0.826931	9.096243	0.534038
691.272460	2.831609	-359.082031	-5.664062
691.277786	0.809642	-359.082031	-5.664062
691.281787	0.826913	-359.082031	-5.664062
691.283786	0.825597	9.081567	0.467930
692.274341	0.417327	-398.046875	108.007812
692.276341	0.724267	-398.046875	108.007812
692.278341	0.831397	-398.046875	108.007812
692.280341	0.828663	9.115288	0.475503
693.352813	0.610191	-358.203125	-8.300781
693.354815	0.822647	-358.203125	-8.300781
693.356816	0.828896	-358.203125	-8.300781
693.358815	0.826960	9.096561	0.469268
694.353373	0.777328	-399.511719	104.980469
694.355375	0.829437	-399.511719	104.980469
694.357376	0.827081	9.097891	0.496918
695.429459	0.796400	-357.031250	-11.621094
695.431459	0.829173	-357.031250	-11.621094
695.433461	0.827033	9.097360	0.478812
696.429495	0.337450	-393.261719	81.152344
696.431496	0.654552	-393.261719	81.152344
696.433496	0.829462	-393.261719	81.152344
696.435497	0.829266	9.121926	0.506108
697.504406	0.797204	-364.648437	-5.761719
697.506408	0.828864	-364.648437	-5.761719
697.508406	0.826690	9.093593	0.477002
698.506969	0.299350	-405.859375	98.242187
698.508972	0.618344	-405.859375	98.242187
698.510971	0.824440	-405.859375	98.242187
698.512972	0.829163	-405.859375	98.242187
698.514973	0.827137	9.098503	0.507181
699.576965	0.543289	-354.980469	-18.554687
699.578968	0.801807	-354.980469	-18.554687
699.580966	0.829398	-354.980469	-18.554687
699.582967	0.827191	9.099096	0.492268
700.587017	0.473869	-409.765625	98.046875
700.589020	0.764651	-409.765625	98.046875
700.591018	0.829619	-409.765625	98.046875
700.593019	0.827117	9.098289	0.517094
701.653090	0.802130	-371.191406	-4.199219
701.655091	0.828740	-371.191406	-4.199219
701.657091	0.826673	9.093398	0.504638
702.667156	0.382959	-414.257812	101.367187
702.669155	0.695697	-414.257812	101.367187
702.671157	0.831556	-414.257812	101.367187
702.673157	0.831637	9.148008	0.519558
703.723135	0.412103	-367.089844	-9.179687
703.725142	0.430553	-367.089844	-9.179687
703.727147	0.830965	-367.089844	-9.179687
703.729151	0.828247	9.110715	0.511208
704.747671	0.426649	-409.472656	93.066406
704.749672	0.731431	-409.472656	93.066406
704.753669	0.827920	-409.472656	93.066406
704.755672	0.826421	9.090633	0.525676
705.799724	0.826955	-344.726562	-30.078125
705.801726	0.828408	-344.726562	-30.078125
705.803726	0.826616	9.092778	0.495412
706.827767	0.359399	-405.175781	96.875000
706.829771	0.674709	-405.175781	96.875000
706.831770	0.830891	-405.175781	96.875000
706.833775	0.829404	9.123442	0.536936
707.869772	0.350532	-343.261719	-30.664062
707.871772	0.666963	-343.261719	-30.664062
707.873772	0.830386	-343.261719	-30.664062
707.875773	0.829386	9.123246	0.503054
708.907775	0.742360	-392.578125	85.449219
708.909777	0.831533	-392.578125	85.449219
708.911777	0.831492	9.146412	0.536131
709.948307	0.673584	-335.742187	-36.425781
709.952307	0.828541	-335.742187	-36.425781
709.954308	0.826938	9.096323	0.507634
710.980333	0.407786	-386.914062	92.968750
710.982334	0.716687	-386.914062	92.968750
710.984335	0.831100	-386.914062	92.968750
710.988332	0.826754	9.094293	0.545544
712.028321	0.341744	-331.347656	-38.085937
712.030323	0.658423	-331.347656	-38.085937
712.032324	0.829310	-331.347656	-38.085937
712.034325	0.828957	9.118532	0.504039
713.052360	0.422686	-375.097656	76.660156
713.054362	0.728761	-375.097656	76.660156
713.056363	0.733394	-375.097656	76.660156
713.058364	0.828083	9.108916	0.564155
714.108382	0.426748	-347.656250	-11.816406
714.110385	0.731483	-347.656250	-11.816406
714.112386	0.830404	-347.656250	-11.816406
714.114385	0.827651	9.104156	0.522497
715.124345	0.389753	-381.054687	105.957031
715.126348	0.701319	-381.054687	105.957031
715.128346	0.830392	-381.054687	105.957031
715.130347	0.827953	9.107480	0.563311
716.190385	0.620745	-325.488281	-35.546875
716.192388	0.824616	-325.488281	-35.546875
716.194388	0.828756	-325.488281	-35.546875
716.196387	0.826913	9.096039	0.499753
717.200436	0.724725	-381.640625	109.277344
717.206438	0.825870	-381.640625	109.277344
717.208438	0.824646	9.071100	0.572772
718.268408	0.442077	-331.152344	-26.757812
718.270409	0.743252	-331.152344	-26.757812
718.272412	0.830501	-331.152344	-26.757812
718.274410	0.827701	9.104706	0.537264
719.274365	0.570625	-385.253906	110.937500
719.276367	0.812222	-385.253906	110.937500
719.278365	0.829210	-385.253906	110.937500
719.280367	0.827160	9.098760	0.569340
720.348366	0.513898	-339.843750	-16.796875
720.350369	0.787583	-339.843750	-16.796875
720.352367	0.828970	-339.843750	-16.796875
720.354369	0.826830	9.095135	0.563172
721.350358	0.372814	-392.187500	119.824219
721.352361	0.828965	-392.187500	119.824219
721.354360	0.827562	9.103183	0.548677
722.424768	0.359764	-347.558594	-9.082031
722.426769	0.675098	-347.558594	-9.082031
722.428770	0.830307	-347.558594	-9.082031
722.430770	0.828761	9.116369	0.533734
723.425285	0.454406	-390.527344	104.687500
723.427288	0.751604	-390.527344	104.687500
723.429287	0.829784	-390.527344	104.687500
723.431288	0.827075	9.097820	0.587579
724.501301	0.449850	-341.308594	-18.164062
724.503303	0.748766	-341.308594	-18.164062
724.505303	0.830069	-341.308594	-18.164062
724.507303	0.827527	9.102793	0.557761
725.501288	0.407351	-385.449219	82.128906
725.503289	0.716452	-385.449219	82.128906
725.505290	0.831080	-385.449219	82.128906
725.509288	0.826847	9.095321	0.561093
726.581329	0.830241	-354.199219	-5.273437
726.583334	0.828088	-354.199219	-5.273437
726.585341	0.826564	9.092201	0.537106
727.580309	0.750231	-400.097656	114.355469
727.582311	0.830143	-400.097656	114.355469
727.584311	0.827408	9.101489	0.594952
728.654821	0.558837	-342.871094	-18.261719
728.656822	0.807557	-342.871094	-18.261719
728.658821	0.828738	-342.871094	-18.261719
728.660822	0.826622	9.092839	0.565447
729.656867	0.523156	-390.722656	87.988281
729.658867	0.830544	-390.722656	87.988281
729.660869	0.827810	9.105912	0.591517
730.731446	0.559453	-336.230469	-26.074219
730.733446	0.807753	-336.230469	-26.074219
730.735447	0.828629	-336.230469	-26.074219
730.737446	0.826588	9.092467	0.587349
731.731409	0.463805	-388.769531	84.960937
731.733410	0.758260	-388.769531	84.960937
731.735408	0.829949	-388.769531	84.960937
731.737410	0.827336	9.100692	0.575235
732.810362	0.807663	-331.250000	-30.468750
732.812366	0.828863	-331.250000	-30.468750
732.814364	0.826813	9.094940	0.582729
733.808404	0.332112	-391.308594	95.898437
733.810406	0.649068	-391.308594	95.898437
733.812406	0.828815	-391.308594	95.898437
733.816405	0.827372	9.101090	0.604624
734.886423	0.735814	-338.281250	-20.996094
734.888424	0.830790	-338.281250	-20.996094
734.890425	0.828055	9.108606	0.586332
735.886419	0.693493	-395.117187	117.285156
735.888422	0.830532	-395.117187	117.285156
735.890421	0.828266	9.110928	0.611382
736.964383	0.828594	-345.703125	-9.667969
736.968383	0.826669	9.093363	0.927552
737.963359	0.568066	-381.152344	87.011719
737.965361	0.811300	-381.152344	87.011719
737.967360	0.829126	-381.152344	87.011719
737.969360	0.827153	9.098680	0.678666
739.039356	0.799876	-345.214844	-8.496094
739.041358	0.828659	-345.214844	-8.496094
739.043358	0.826537	9.091909	0.614298
740.041382	0.559338	-388.476562	119.140625
740.043384	0.807727	-388.476562	119.140625
740.045386	0.828450	-388.476562	119.140625
740.047385	0.826472	9.091191	0.621343
741.113378	0.797908	-330.468750	-26.757812
741.115380	0.828946	-330.468750	-26.757812
741.117380	0.826841	9.095250	0.607633
742.119429	0.474025	-385.351562	114.062500
742.121430	0.764487	-385.351562	114.062500
742.123431	0.829209	-385.351562	114.062500
742.125431	0.826691	9.093602	0.638453
743.185422	0.524923	-326.660156	-34.179687
743.187426	0.793144	-326.660156	-34.179687
743.189425	0.829015	-326.660156	-34.179687
743.191424	0.826822	9.095046	0.618946
744.201401	0.725615	-380.273437	95.605469
744.203404	0.830151	-380.273437	95.605469
744.205404	0.827510	9.102606	0.654171
745.257934	0.320933	-324.121094	-40.917969
745.259936	0.638588	-324.121094	-40.917969
745.261935	0.826495	-324.121094	-40.917969
745.263935	0.827949	9.107436	0.615867
746.279946	0.549875	-388.964844	112.597656
746.281947	0.804269	-388.964844	112.597656
746.283947	0.806877	-388.964844	112.597656
746.285947	0.826819	9.095011	0.631770
747.329988	0.319609	-330.664062	-37.109375
747.331997	0.637424	-330.664062	-37.109375
747.333999	0.826532	-330.664062	-37.109375
747.335999	0.828016	9.108180	0.611425
748.360081	0.331164	-391.113281	97.851562
748.362082	0.648229	-391.113281	97.851562
748.364082	0.828627	-391.113281	97.851562
748.366082	0.828953	9.118487	0.667064
749.404097	0.400812	-351.757812	-15.136719
749.406099	0.710845	-351.757812	-15.136719
749.408101	0.830744	-351.757812	-15.136719
749.410100	0.828096	9.109057	0.604002
750.438133	0.429450	-394.433594	82.910156
750.440134	0.733502	-394.433594	82.910156
750.444133	0.827223	-394.433594	82.910156
750.446139	0.825569	9.081257	0.640209
751.486695	0.827434	-331.250000	-41.015625
751.488697	0.825698	9.082675	0.631786
752.514751	0.369978	-409.375000	103.027344
752.516752	0.684101	-409.375000	103.027344
752.518752	0.830590	-409.375000	103.027344
752.520753	0.828692	9.115616	0.671218
753.558726	0.361282	-339.453125	-33.984375
753.560727	0.676278	-339.453125	-33.984375
753.562728	0.830071	-339.453125	-33.984375
753.564730	0.828557	9.114127	0.648817
754.588794	0.240354	-413.867187	97.070312
754.590797	0.563021	-413.867187	97.070312
754.594795	0.828381	-413.867187	97.070312
754.596796	0.826230	-413.867187	97.070312
754.598798	0.824901	9.073910	0.667128
755.642866	0.828477	-336.425781	-37.500000
755.644869	0.826370	-336.425781	-37.500000
755.646870	0.824898	9.073883	0.634296
756.666899	0.809128	-410.156250	81.542969
756.668901	0.828635	-410.156250	81.542969
756.670901	0.826599	9.092591	0.717401
757.718942	0.495874	-365.136719	-8.593750
757.720945	0.777963	-365.136719	-8.593750
757.722944	0.829251	-365.136719	-8.593750
757.724945	0.826887	9.095756	0.656099
758.739019	0.485551	-420.312500	104.394531
758.741023	0.771712	-420.312500	104.394531
758.743021	0.829247	-420.312500	104.394531
758.745022	0.826889	9.095774	0.712838
759.797110	0.431876	-358.007812	-14.648437
759.799112	0.735383	-358.007812	-14.648437
759.803110	0.828207	-358.007812	-14.648437
759.805111	0.826756	9.094311	0.676223
760.815665	0.807527	-414.062500	92.480469
760.817666	0.828703	-414.062500	92.480469
760.819668	0.826615	9.092760	0.734311
761.876243	0.576644	-339.355469	-32.324219
761.878248	0.813483	-339.355469	-32.324219
761.880253	0.828376	-339.355469	-32.324219
761.882249	0.826430	9.090731	0.651182
762.890249	0.719568	-412.109375	91.894531
762.892251	0.829931	-412.109375	91.894531
762.894253	0.827364	9.101002	0.719402
763.952800	0.314040	-340.039062	-30.468750
763.954826	0.631915	-340.039062	-30.468750
763.956826	0.826769	-340.039062	-30.468750
763.958827	0.828693	9.115624	0.664563
764.966811	0.797282	-411.230469	93.847656
764.968813	0.828774	-411.230469	93.847656
764.970814	0.826602	9.092627	0.728254
766.031343	0.499055	-340.136719	-29.296875
766.033344	0.779569	-340.136719	-29.296875
766.035344	0.828887	-340.136719	-29.296875
766.037345	0.826552	9.092069	0.694557
767.041339	0.540859	-416.015625	108.789062
767.043340	0.800030	-416.015625	108.789062
767.045340	0.828555	-416.015625	108.789062
767.047339	0.826510	9.091608	0.739556
768.107375	0.366884	-339.648437	-30.273437
768.109377	0.681307	-339.648437	-30.273437
768.111376	0.829886	-339.648437	-30.273437
768.113376	0.828273	9.110998	0.690175
769.117424	0.418581	-415.039062	103.320312
769.119425	0.725662	-415.039062	103.320312
769.121425	0.833231	-415.039062	103.320312
769.123424	0.830502	9.135520	0.723011
770.185453	0.656093	-335.156250	-35.937500
770.187461	0.828198	-335.156250	-35.937500
770.189463	0.827994	9.107933	0.997941
771.195381	0.449774	-415.429687	98.828125
771.197382	0.748435	-415.429687	98.828125
771.199382	0.829661	-415.429687	98.828125
771.201382	0.826990	9.096890	0.734769
772.259338	0.329375	-339.062500	-33.398437
772.261340	0.646707	-339.062500	-33.398437
772.263338	0.827892	-339.062500	-33.398437
772.265339	0.828510	9.113613	0.672621
773.273302	0.495349	-418.066406	99.121094
773.275305	0.777453	-418.066406	99.121094
773.277304	0.829005	-418.066406	99.121094
773.279303	0.826631	9.092946	0.747528
774.337314	0.513657	-358.496094	-13.964844
774.339317	0.829251	-358.496094	-13.964844
774.341317	0.827400	9.101401	0.721068
775.351820	0.411998	-425.488281	115.039062
775.353822	0.719937	-425.488281	115.039062
775.355821	0.832079	-425.488281	115.039062
775.357822	0.829280	9.122076	0.725456
776.412223	0.747137	-361.816406	-11.425781
776.414226	0.829261	-361.816406	-11.425781
776.416225	0.826611	9.092715	0.733007
777.430312	0.365693	-422.558594	101.562500
777.432311	0.680270	-422.558594	101.562500
777.434310	0.830358	-422.558594	101.562500
777.436314	0.828766	9.116431	0.760054
778.484365	0.403288	-351.757812	-21.875000
778.486368	0.712828	-351.757812	-21.875000
778.490366	0.828194	-351.757812	-21.875000
778.492368	0.826553	9.092087	0.735462
779.512399	0.718646	-424.804687	112.500000
779.514400	0.830237	-424.804687	112.500000
779.516401	0.827626	9.103882	0.770374
780.558386	0.387613	-335.449219	-38.476562
780.560389	0.699570	-335.449219	-38.476562
780.562390	0.830956	-335.449219	-38.476562
780.564388	0.828526	9.113782	0.710626
781.588386	2.391519	-419.238281	105.957031
781.590389	0.588013	-419.238281	105.957031
781.592389	0.816831	-419.238281	105.957031
781.594390	0.828308	-419.238281	105.957031
781.596388	0.826265	9.088914	0.770186
782.634393	0.474510	-351.367187	-19.433594
782.636395	0.764891	-351.367187	-19.433594
782.638394	0.829167	-351.367187	-19.433594
782.640395	0.829044	9.119480	0.734774
783.668929	0.622759	-405.664062	87.304687
783.670929	0.824006	-405.664062	87.304687
783.672931	0.827722	-405.664062	87.304687
783.674930	0.825849	9.084341	0.975745
784.709952	0.492703	-325.195312	-46.582031
784.711954	0.776033	-325.195312	-46.582031
784.713955	0.829145	-325.195312	-46.582031
784.715955	0.826838	9.095215	0.725587
785.745911	0.651648	-400.683594	91.894531
785.747913	0.827394	-400.683594	91.894531
785.749913	0.827503	9.102535	0.785077
786.788434	0.563966	-323.730469	-46.875000
786.790434	0.808853	-323.730469	-46.875000
786.792436	0.828003	-323.730469	-46.875000
786.794439	0.825926	9.085192	0.744664
787.820460	0.568678	-398.046875	104.199219
787.824460	0.828123	-398.046875	104.199219
787.828460	0.824669	-398.046875	104.199219
787.830461	0.823448	9.057931	0.847672
788.868454	0.793424	-338.574219	-25.488281
788.870455	0.828545	-338.574219	-25.488281
788.872457	0.826502	9.091519	0.780806
789.894438	0.408298	-394.433594	109.277344
789.896439	0.716832	-394.433594	109.277344
789.898441	0.831055	-394.433594	109.277344
789.900439	0.828352	9.111876	0.811222
790.946425	0.582342	-321.386719	-43.750000
790.948428	0.815103	-321.386719	-43.750000
790.950429	0.828208	-321.386719	-43.750000
790.952429	0.826242	9.088657	0.852836
791.970470	0.766124	-394.726562	124.609375
791.972474	0.829022	-394.726562	124.609375
791.974473	0.826623	9.092849	0.830100
793.026905	0.695267	-332.031250	-25.390625
793.028907	0.829380	-332.031250	-25.390625
793.032905	0.825437	9.079803	0.785158
794.043447	0.510507	-383.984375	91.113281
794.045448	0.785667	-383.984375	91.113281
794.047448	0.828729	-383.984375	91.113281
794.049447	0.826567	9.092237	0.806923
795.104422	0.479232	-311.523437	-49.609375
795.106422	0.767729	-311.523437	-49.609375
795.108425	0.829029	-311.523437	-49.609375
795.110425	0.826616	9.092778	0.803231
796.118479	0.505441	-390.625000	109.960937
796.120480	0.782840	-390.625000	109.960937
796.122481	0.828546	-390.625000	109.960937
796.124480	0.826268	9.088949	0.851138
797.182541	0.475467	-335.644531	-16.503906
797.184543	0.765436	-335.644531	-16.503906
797.186541	0.829047	-335.644531	-16.503906
797.188543	0.826512	9.091635	0.803006
798.196580	0.778151	-390.917969	105.859375
798.198582	0.828775	-390.917969	105.859375
798.200583	0.826421	9.090633	0.874187
799.263149	0.778793	-323.535156	-32.812500
799.265152	0.828870	-323.535156	-32.812500
799.267153	0.826464	9.091103	0.829791
800.271177	0.645909	-396.875000	120.214844
800.273180	0.826744	-396.875000	120.214844
800.275179	0.827485	9.102331	0.843220
801.337187	0.356149	-323.046875	-33.105469
801.339188	0.671584	-323.046875	-33.105469
801.341188	0.829841	-323.046875	-33.105469
801.343188	0.828654	9.115191	0.801886
802.347190	0.600657	-397.070312	115.332031
802.353187	0.826426	-397.070312	115.332031
802.355191	0.824972	-397.070312	115.332031
802.357190	0.823879	9.062673	0.985676
803.415234	0.524214	-337.207031	-15.722656
803.419233	0.828542	-337.207031	-15.722656
803.421235	0.826410	-337.207031	-15.722656
803.423237	0.824855	9.073404	0.848655
804.425271	0.755206	-399.023437	118.945312
804.429271	0.827117	-399.023437	118.945312
804.431273	0.825722	9.082940	0.887126
805.493277	0.687405	-312.011719	-46.484375
805.495280	0.830138	-312.011719	-46.484375
805.497281	0.828179	9.109970	0.828996
806.501304	0.651686	-400.097656	123.437500
806.503305	0.656353	-400.097656	123.437500
806.505306	0.827665	9.104317	0.872415
807.567321	0.477308	-312.500000	-45.507812
807.569322	0.766410	-312.500000	-45.507812
807.571321	0.828749	-312.500000	-45.507812
807.573322	0.826458	9.091041	0.811480
808.577360	0.456288	-399.609375	125.976562
808.579362	0.752650	-399.609375	125.976562
808.581363	0.829383	-399.609375	125.976562
808.583362	0.826758	9.094337	0.875768
809.645382	0.575068	-337.402344	-12.988281
809.647383	0.585348	-337.402344	-12.988281
809.649383	0.828307	-337.402344	-12.988281
809.651383	0.826324	9.089561	0.833750
810.655348	0.561767	-390.039062	100.097656
810.659348	0.828107	-390.039062	100.097656
810.661351	0.826188	-390.039062	100.097656
810.663349	0.824716	9.071880	0.921161
811.720347	0.517117	-308.691406	-48.730469
811.722348	0.789295	-308.691406	-48.730469
811.724348	0.829097	-308.691406	-48.730469
811.726347	0.826919	9.096109	0.857752
812.732371	0.311375	-391.992187	110.546875
812.734377	0.629381	-391.992187	110.546875
812.736373	0.826426	-391.992187	110.546875
812.738375	0.829285	-391.992187	110.546875
812.740374	0.827444	9.101888	0.910999
813.798330	0.767871	-304.882812	-54.296875
813.800334	0.829562	-304.882812	-54.296875
813.802333	0.827104	9.098139	0.880838
814.810754	0.371632	-388.867187	102.441406
814.812754	0.685464	-388.867187	102.441406
814.814754	0.829938	-388.867187	102.441406
814.816753	0.828077	9.108845	0.925458
815.871309	0.400900	-305.761719	-55.371094
815.873311	0.711444	-305.761719	-55.371094
815.875311	0.834736	-305.761719	-55.371094
815.877311	0.832457	9.157030	0.840586
816.889328	0.408356	-387.011719	95.605469
816.891329	0.716825	-387.011719	95.605469
816.893331	0.831130	-387.011719	95.605469
816.895330	0.831068	9.141751	0.922496
817.946242	0.400746	-331.640625	-24.218750
817.948244	0.710642	-331.640625	-24.218750
817.950243	0.830020	-331.640625	-24.218750
817.952245	0.827514	9.102651	0.885335
818.968248	0.261432	-395.605469	117.285156
818.970252	0.582501	-395.605469	117.285156
818.972251	0.815252	-395.605469	117.285156
818.974252	0.828373	-395.605469	117.285156
818.976250	0.826304	9.089339	0.927010
820.022239	0.575603	-320.800781	-42.480469
820.024243	0.813201	-320.800781	-42.480469
820.026242	0.828523	-320.800781	-42.480469
820.028242	0.826448	9.090925	0.965153
821.048249	0.450079	-390.039062	86.132812
821.050251	0.748248	-390.039062	86.132812
821.052252	0.828761	-390.039062	86.132812
821.054251	0.826189	9.088080	0.953141
822.098308	0.448630	-322.558594	-43.359375
822.100309	0.829158	-322.558594	-43.359375
822.102309	0.826479	9.091271	0.926209
823.128322	0.541802	-402.148437	103.906250
823.130326	0.800401	-402.148437	103.906250
823.132324	0.828246	-402.148437	103.906250
823.134325	0.826171	9.087886	0.986735
824.174338	0.798624	-333.496094	-32.324219
824.176340	0.828212	-333.496094	-32.324219
824.178339	0.826054	9.086592	0.941578
825.206894	0.640302	-405.273437	94.238281
825.208896	0.826530	-405.273437	94.238281
825.210897	0.827763	9.105389	0.972963
826.247422	0.358825	-316.992187	-53.125000
826.249424	0.673863	-316.992187	-53.125000
826.251424	0.829351	-316.992187	-53.125000
826.253423	0.828079	9.108871	0.928405
827.285401	0.811609	-412.207031	94.824219
827.287404	0.827799	-412.207031	94.824219
827.289403	0.825786	9.083641	1.029871
828.325906	0.631637	-316.503906	-53.906250
828.327909	0.825912	-316.503906	-53.906250
828.329908	0.828045	-316.503906	-53.906250
828.331910	0.826177	9.087948	0.924375
829.357933	0.303677	-424.511719	111.718750
829.359935	0.622091	-424.511719	111.718750
829.361936	0.823754	-424.511719	111.718750
829.363941	0.827513	-424.511719	111.718750
829.365942	0.825672	9.082391	0.988456
830.401959	0.260006	-351.562500	-16.796875
830.403960	0.580982	-351.562500	-16.796875
830.405967	0.814105	-351.562500	-16.796875
830.407969	0.827593	-351.562500	-16.796875
830.409972	0.825548	9.081027	0.896130
831.434007	0.425763	-423.632812	97.265625
831.436008	0.730513	-423.632812	97.265625
831.438008	0.829713	-423.632812	97.265625
831.440008	0.827101	9.098113	1.012682
832.482026	0.408390	-335.058594	-35.937500
832.484028	0.716799	-335.058594	-35.937500
832.488028	0.828242	-335.058594	-35.937500
832.490029	0.826676	9.093433	0.970167
833.510002	0.568877	-429.687500	108.398437
833.512004	0.810861	-429.687500	108.398437
833.514004	0.828160	-429.687500	108.398437
833.516003	0.826146	9.087603	1.058117
834.560025	0.342447	-329.199219	-41.992187
834.562026	0.658351	-329.199219	-41.992187
834.564025	0.827889	-329.199219	-41.992187
834.566025	0.827592	9.103510	0.972231
835.586059	0.613582	-432.812500	115.332031
835.588059	0.822519	-432.812500	115.332031
835.590059	0.827933	-432.812500	115.332031
835.592059	0.826011	9.086123	1.021501
836.640072	0.710265	-349.609375	-21.386719
836.642073	0.829653	-349.609375	-21.386719
836.644072	0.827069	9.097758	0.969300
837.662645	0.739675	-434.570312	121.191406
837.666646	0.827718	-434.570312	121.191406
837.668648	0.826334	9.089676	1.036401
838.716642	0.416890	-335.546875	-36.425781
838.718645	0.723681	-335.546875	-36.425781
838.720643	0.831022	-335.546875	-36.425781
838.722644	0.828253	9.110786	0.998816
839.736602	0.395087	-433.984375	121.191406
839.738602	0.705794	-433.984375	121.191406
839.740602	0.830349	-433.984375	121.191406
839.742603	0.827929	9.107215	0.997481
840.797085	0.817995	-349.707031	-21.484375
840.799088	0.827453	-349.707031	-21.484375
840.801088	0.825432	9.079750	0.990639
841.815629	0.763000	-431.250000	111.132812
841.817629	0.828583	-431.250000	111.132812
841.819629	0.826042	9.086458	1.065258
842.873591	0.790031	-318.457031	-52.734375
842.875591	0.828931	-318.457031	-52.734375
842.877595	0.826711	9.093823	1.033903
843.892053	0.635578	-422.851562	89.941406
843.894057	0.825537	-422.851562	89.941406
843.896056	0.827284	9.100124	1.050472
844.950575	0.820720	-318.066406	-53.222656
844.952575	0.827499	-318.066406	-53.222656
844.954576	0.825572	9.081292	1.142795
845.968596	0.404773	-427.539062	98.535156
845.972596	0.830366	-427.539062	98.535156
845.974597	0.827746	-427.539062	98.535156
845.976597	0.826200	9.088196	1.085607
847.023147	0.427587	-344.531250	-26.269531
847.025147	0.731924	-344.531250	-26.269531
847.027147	0.829487	-344.531250	-26.269531
847.029147	0.826795	9.094746	0.999496
848.045690	0.293267	-433.007812	110.546875
848.047691	0.612474	-433.007812	110.546875
848.049691	0.822062	-433.007812	110.546875
848.051692	0.827770	-433.007812	110.546875
848.053691	0.825885	9.084740	1.075422
849.099664	0.475061	-336.621094	-35.351562
849.101665	0.764853	-336.621094	-35.351562
849.103665	0.828661	-336.621094	-35.351562
849.105666	0.826177	9.087948	1.043279
850.127686	0.819140	-424.707031	88.476562
850.131686	0.825243	-424.707031	88.476562
850.133687	0.823779	9.061565	1.184837
851.177708	0.905350	-339.062500	-33.203125
851.179710	0.827871	-339.062500	-33.203125
851.181710	0.825717	9.082888	1.071384
852.202306	0.327767	-429.492187	101.953125
852.204308	0.644680	-429.492187	101.953125
852.206308	0.827026	-429.492187	101.953125
852.210306	0.826068	9.086742	1.101545
853.250338	0.375389	-317.480469	-53.808594
853.252339	0.688701	-317.480469	-53.808594
853.254339	0.829525	-317.480469	-53.808594
853.256339	0.827692	9.104609	1.023173
854.282345	0.527683	-430.859375	113.867187
854.284348	0.793959	-430.859375	113.867187
854.288347	0.828168	-430.859375	113.867187
854.292346	0.823274	9.056017	1.150120
855.328356	0.729889	-339.257812	-30.468750
855.330356	0.829160	-339.257812	-30.468750
855.332365	0.826667	9.093336	1.086925
856.360942	0.587750	-429.003906	123.828125
856.362944	0.815842	-429.003906	123.828125
856.364945	0.827379	-429.003906	123.828125
856.366945	0.825359	9.078953	1.211806
857.405028	0.783034	-306.445312	-65.136719
857.407029	0.828362	-306.445312	-65.136719
857.409030	0.826151	9.087665	1.098136
858.439502	0.735012	-416.992187	101.367187
858.441505	0.829556	-416.992187	101.367187
858.443503	0.826879	9.095667	1.156768
859.480125	0.540904	-314.941406	-55.761719
859.482128	0.799734	-314.941406	-55.761719
859.484128	0.827916	-314.941406	-55.761719
859.486128	0.825765	9.083419	1.115110
860.514190	0.435259	-412.792969	107.617187
860.516193	0.737641	-412.792969	107.617187
860.518194	0.829980	-412.792969	107.617187
860.520198	0.827206	9.099265	1.167854
861.558238	0.646442	-304.101562	-67.382812
861.560239	0.826770	-304.101562	-67.382812
861.562239	0.827445	9.101897	1.087367
862.590290	0.485923	-407.617187	107.519531
862.592292	0.771341	-407.617187	107.519531
862.594291	0.828255	-407.617187	107.519531
862.596291	0.825831	9.084146	1.181116
863.636367	0.533890	-303.808594	-66.210937
863.640366	0.828248	-303.808594	-66.210937
863.642367	0.826196	-303.808594	-66.210937
863.652366	0.821360	9.034960	1.139418
864.666361	0.540533	-408.398437	135.058594
864.668362	0.799802	-408.398437	135.058594
864.670364	0.828085	-408.398437	135.058594
864.672363	0.826020	9.086220	1.160845
865.714872	0.520723	-294.824219	-74.707031
865.716872	0.790742	-294.824219	-74.707031
865.718872	0.828266	-294.824219	-74.707031
865.720873	0.828206	9.110263	1.097181
866.741353	0.556297	-404.980469	129.101562
866.743354	0.806363	-404.980469	129.101562
866.745355	0.828385	-404.980469	129.101562
866.747355	0.826417	9.090589	1.216353
867.793351	0.434243	-313.378906	-48.535156
867.795351	0.737007	-313.378906	-48.535156
867.797352	0.829943	-313.378906	-48.535156
867.799352	0.827249	9.099744	1.153421
868.817401	0.602638	-396.679687	101.171875
868.819402	0.819653	-396.679687	101.171875
868.821402	0.827383	-396.679687	101.171875
868.823402	0.825367	9.079041	1.197609
869.873989	0.692956	-320.117187	-37.207031
869.875990	0.829335	-320.117187	-37.207031
869.877990	0.827239	9.099628	1.162331
870.892540	0.820657	-404.882812	137.109375
870.894542	0.821883	-404.882812	137.109375
870.896541	0.827547	-404.882812	137.109375
870.898542	0.825594	9.081532	1.198386
871.952591	0.781107	-317.089844	-39.648437
871.954592	0.828411	-317.089844	-39.648437
871.956591	0.826083	9.086911	1.172750
872.967144	0.357314	-404.785156	130.859375
872.969146	0.672389	-404.785156	130.859375
872.971146	0.828643	-404.785156	130.859375
872.973145	0.827451	9.101959	1.225173
874.029170	0.510340	-325.292969	-28.515625
874.033168	0.827304	-325.292969	-28.515625
874.035171	0.825247	-325.292969	-28.515625
874.037170	0.823638	9.060014	1.162099
875.044149	0.500179	-397.851562	103.222656
875.046150	0.779649	-397.851562	103.222656
875.050147	0.825924	-397.851562	103.222656
875.052149	0.824214	9.066359	1.206483
876.107085	0.624370	-324.609375	-28.906250
876.109088	0.824350	-324.609375	-28.906250
876.111088	0.827802	-324.609375	-28.906250
876.113087	0.825965	9.085617	1.184416
877.120042	0.333984	-398.828125	100.488281
877.124042	0.826946	-398.828125	100.488281
877.126042	0.827089	-398.828125	100.488281
877.128043	0.825417	9.079591	1.200505
878.186073	0.811710	-292.089844	-72.851562
878.188076	0.828158	-292.089844	-72.851562
878.190076	0.826171	9.087877	1.256727
879.200080	0.755769	-403.027344	113.867187
879.202081	0.828579	-403.027344	113.867187
879.204082	0.826152	9.087673	1.281815
880.260655	0.597807	-322.167969	-32.714844
880.262657	0.818781	-322.167969	-32.714844
880.264656	0.827615	-322.167969	-32.714844
880.266657	0.825616	9.081779	1.292242
881.276718	0.649187	-408.300781	141.015625
881.278720	0.827228	-408.300781	141.015625
881.280719	0.827515	9.102669	1.256044
882.339199	0.810358	-313.574219	-43.457031
882.341201	0.827771	-313.574219	-43.457031
882.343201	0.825642	9.082064	1.283458
883.355796	0.800157	-407.128906	144.726562
883.357798	0.827764	-407.128906	144.726562
883.359798	0.825577	9.081346	1.292311
884.414261	0.658897	-315.625000	-39.160156
884.416264	0.827371	-315.625000	-39.160156
884.420263	0.825122	9.076338	1.391143
885.431234	0.540702	-406.738281	143.261719
885.433236	0.799556	-406.738281	143.261719
885.435236	0.827773	-406.738281	143.261719
885.437236	0.825732	9.083055	1.274756
886.489276	0.450740	-310.546875	-46.972656
886.491276	0.748513	-310.546875	-46.972656
886.493277	0.828804	-310.546875	-46.972656
886.495276	0.826258	9.088842	1.257000
887.507853	0.265975	-397.265625	103.125000
887.511854	0.815944	-397.265625	103.125000
887.513855	0.827979	-397.265625	103.125000
887.515856	0.825939	9.085334	1.257997
888.564811	0.391974	-292.480469	-72.656250
888.566810	0.702931	-292.480469	-72.656250
888.570811	0.827369	-292.480469	-72.656250
888.572812	0.825870	9.084571	1.263185
889.588859	0.671096	-398.535156	103.320312
889.590864	0.828378	-398.535156	103.320312
889.592872	0.827123	9.098352	1.336020
890.641447	0.537210	-319.921875	-37.890625
890.643449	0.797833	-319.921875	-37.890625
890.645447	0.827681	-319.921875	-37.890625
890.647448	0.825520	9.080725	1.290166
891.665501	0.384816	-406.640625	125.097656
891.667503	0.696875	-406.640625	125.097656
891.671502	0.827477	-406.640625	125.097656
891.673503	0.825798	9.083782	1.346068
892.715552	0.331806	-291.796875	-76.855469
892.717554	0.648306	-291.796875	-76.855469
892.719554	0.827643	-291.796875	-76.855469
892.721555	0.828166	9.109829	1.267674
893.745588	0.599962	-409.277344	121.679687
893.747590	0.818967	-409.277344	121.679687
893.749590	0.827307	-409.277344	121.679687
893.751590	0.825264	9.077907	1.422953
894.791621	0.381449	-324.902344	-36.230469
894.793623	0.409697	-324.902344	-36.230469
894.795623	0.829895	-324.902344	-36.230469
894.797623	0.827689	9.104573	1.292664
895.823611	0.451532	-405.761719	95.507812
895.825613	0.749309	-405.761719	95.507812
895.827616	0.829037	-405.761719	95.507812
895.829620	0.826496	9.091457	1.338051
896.868575	0.545605	-306.445312	-62.207031
896.870578	0.801899	-306.445312	-62.207031
896.872584	0.827927	-306.445312	-62.207031
896.874590	0.825752	9.083278	1.335544
897.904576	0.813086	-415.039062	106.152344
897.906579	0.827541	-415.039062	106.152344
897.908580	0.825516	9.080681	1.432634
898.945094	0.571929	-304.785156	-64.941406
898.949092	0.827446	-304.785156	-64.941406
898.951095	0.825373	-304.785156	-64.941406
898.953095	0.823782	9.061601	1.358052
899.979082	0.423195	-422.753906	112.304687
899.981085	0.728452	-422.753906	112.304687
899.983085	0.732353	-422.753906	112.304687
899.985084	0.827378	9.101162	1.409588
901.023108	0.700730	-297.949219	-72.753906
901.025111	0.829405	-297.949219	-72.753906
901.027111	0.827208	9.099292	1.345688
902.055559	0.306483	-428.027344	109.863281
902.057561	0.624525	-428.027344	109.863281
902.059563	0.823595	-428.027344	109.863281
902.061564	0.827086	-428.027344	109.863281
902.063561	0.825040	9.075443	1.418610
903.099587	0.481599	-331.445312	-35.546875
903.101590	0.769072	-331.445312	-35.546875
903.103590	0.828497	-331.445312	-35.546875
903.105591	0.826103	9.087132	1.331188
904.134495	0.666445	-425.683594	92.675781
904.136497	0.827809	-425.683594	92.675781
904.138497	0.826735	9.094090	1.532126
905.176541	0.310357	-321.972656	-46.484375
905.178548	0.628142	-321.972656	-46.484375
905.180545	0.826105	-321.972656	-46.484375
905.182547	0.828973	9.118700	1.367583
906.210521	0.645185	-435.937500	108.886719
906.212523	0.826433	-435.937500	108.886719
906.214522	0.827246	9.099709	1.533308
907.255110	0.453035	-325.488281	-44.140625
907.257112	0.750234	-325.488281	-44.140625
907.259112	0.828405	-325.488281	-44.140625
907.263109	0.824082	9.064897	1.411485
908.285147	0.277745	-438.671875	110.351562
908.287150	0.597339	-438.671875	110.351562
908.289148	0.818332	-438.671875	110.351562
908.291148	0.827408	-438.671875	110.351562
908.293151	0.825359	9.078953	1.461359
909.333147	0.435722	-311.425781	-58.398437
909.335149	0.737663	-311.425781	-58.398437
909.337149	0.828638	-311.425781	-58.398437
909.339151	0.825991	9.085900	1.413462
910.361197	0.325245	-432.519531	93.554687
910.363200	0.642352	-432.519531	93.554687
910.365199	0.649451	-432.519531	93.554687
910.367199	0.827838	9.106222	1.420445
911.414170	0.804934	-325.683594	-44.042969
911.416173	0.827813	-325.683594	-44.042969
911.418172	0.825630	9.081930	1.459548
912.438738	0.506334	-442.187500	117.578125
912.440738	0.783133	-442.187500	117.578125
912.442739	0.828312	-442.187500	117.578125
912.444741	0.825977	9.085750	1.518636
913.490732	0.714365	-319.238281	-49.902344
913.492732	0.829411	-319.238281	-49.902344
913.494733	0.826861	9.095472	1.445547
914.514684	0.380555	-441.894531	116.210937
914.516686	0.692990	-441.894531	116.210937
914.518686	0.828844	-441.894531	116.210937
914.522686	0.825014	9.075150	1.508858
915.566743	0.525183	-312.402344	-57.421875
915.568742	0.792560	-312.402344	-57.421875
915.570743	0.827977	-312.402344	-57.421875
915.572743	0.825774	9.083517	1.464609
916.592769	0.542885	-444.531250	126.171875
916.594773	0.800358	-444.531250	126.171875
916.596772	0.827401	-444.531250	126.171875
916.598772	0.825230	9.077535	1.542189
917.642826	0.340088	-311.621094	-58.593750
917.644829	0.656082	-311.621094	-58.593750
917.648826	0.828017	-311.621094	-58.593750
917.650829	0.826323	9.089552	1.450762
918.668908	0.304707	-445.214844	130.664062
918.670908	0.623064	-445.214844	130.664062
918.672909	0.823243	-445.214844	130.664062
918.674909	0.826951	-445.214844	130.664062
918.676908	0.826859	9.095445	1.517949
919.720927	0.528430	-303.027344	-66.796875
919.722929	0.794249	-303.027344	-66.796875
919.724930	0.827945	-303.027344	-66.796875
919.726929	0.825704	9.082746	1.445962
920.746918	0.301495	-442.382812	116.503906
920.748920	0.619986	-442.382812	116.503906
920.750919	0.822724	-442.382812	116.503906
920.752920	0.827069	-442.382812	116.503906
920.754920	0.824948	9.074424	1.547242
921.796951	0.416548	-319.921875	-49.511719
921.798956	0.723438	-319.921875	-49.511719
921.800955	0.830706	-319.921875	-49.511719
921.802952	0.828030	9.108332	1.505947
922.825000	0.313676	-443.261719	120.507812
922.827024	0.631185	-443.261719	120.507812
922.829029	0.825518	-443.261719	120.507812
922.831027	0.827440	-443.261719	120.507812
922.833028	0.825579	9.081372	1.571122
923.873106	0.392910	-303.417969	-67.773437
923.875108	0.703676	-303.417969	-67.773437
923.877109	0.828821	-303.417969	-67.773437
923.879108	0.826548	9.092025	1.454351
924.903151	0.313433	-442.382812	118.652344
924.905171	0.631106	-442.382812	118.652344
924.907171	0.826382	-442.382812	118.652344
924.909172	0.828491	-442.382812	118.652344
924.911171	0.826679	9.093469	1.589383
925.951217	0.638076	-298.632812	-72.363281
925.953217	0.825946	-298.632812	-72.363281
925.955218	0.827564	9.103200	1.528171
926.981233	0.291816	-440.136719	116.601562
926.983236	0.610684	-440.136719	116.601562
926.985236	0.821859	-440.136719	116.601562
926.989235	0.826071	-440.136719	116.601562
926.991237	0.824631	9.070941	1.589296
928.027256	0.589933	-327.343750	-42.675781
928.029259	0.816699	-327.343750	-42.675781
928.031256	0.827568	-327.343750	-42.675781
928.033257	0.825709	9.082799	1.585771
929.062246	0.703922	-428.906250	94.140625
929.064249	0.829019	-428.906250	94.140625
929.066249	0.826701	9.093708	1.618162
930.102299	0.329919	-310.351562	-60.937500
930.104303	0.646654	-310.351562	-60.937500
930.106302	0.827018	-310.351562	-60.937500
930.110315	0.825744	9.083189	1.547885
931.138308	0.441685	-431.835937	113.867187
931.140309	0.741959	-431.835937	113.867187
931.142310	0.828555	-431.835937	113.867187
931.144309	0.825906	9.084970	1.620264
932.180364	0.512444	-325.585937	-42.089844
932.182365	0.786281	-325.585937	-42.089844
932.184364	0.828252	-325.585937	-42.089844
932.186364	0.825964	9.085599	1.531849
933.215296	0.410134	-418.652344	91.210937
933.217298	0.718012	-418.652344	91.210937
933.219298	0.829529	-418.652344	91.210937
933.221298	0.827083	9.097909	1.603166
934.259300	0.729534	-306.933594	-63.476562
934.261301	0.829458	-306.933594	-63.476562
934.263300	0.826876	9.095632	1.589480
935.291328	0.252599	-422.949219	117.675781
935.293329	0.573887	-422.949219	117.675781
935.297327	0.827577	-422.949219	117.675781
935.299330	0.825596	-422.949219	117.675781
935.301330	0.823945	9.063399	1.619887
936.337338	0.740247	-283.593750	-90.625000
936.339340	0.829792	-283.593750	-90.625000
936.343338	0.825627	9.081895	1.599209
937.371312	0.772286	-417.773437	113.964844
937.373314	0.828057	-417.773437	113.964844
937.375314	0.825762	9.083384	1.620022
938.413857	0.447597	-285.742187	-87.792969
938.415860	0.746327	-285.742187	-87.792969
938.417859	0.828417	-285.742187	-87.792969
938.421857	0.823969	9.063657	1.616044
939.445834	0.543470	-418.457031	136.816406
939.447836	0.800799	-418.457031	136.816406
939.451833	0.825643	-418.457031	136.816406
939.453836	0.823978	9.063753	1.620163
940.493876	0.714830	-282.910156	-90.039062
940.495878	0.828916	-282.910156	-90.039062
940.497878	0.826434	9.090775	1.617764
941.521877	0.502965	-406.640625	98.828125
941.523880	0.781067	-406.640625	98.828125
941.525880	0.827761	-406.640625	98.828125
941.527880	0.825499	9.080485	1.620023
942.569873	0.309320	-293.554687	-74.218750
942.571874	0.365904	-293.554687	-74.218750
942.573881	0.824883	-293.554687	-74.218750
942.575881	0.827867	-293.554687	-74.218750
942.577881	0.825958	9.085538	1.618277
943.597849	0.426243	-413.476562	131.250000
943.601850	0.829412	-413.476562	131.250000
943.603851	0.826847	-413.476562	131.250000
943.605850	0.825223	9.077455	1.620213
944.647841	0.289429	-284.570312	-83.593750
944.649842	0.608322	-284.570312	-83.593750
944.651842	0.820764	-284.570312	-83.593750
944.653841	0.827212	-284.570312	-83.593750
944.655841	0.825158	9.076736	1.619534
945.673844	0.336443	-413.769531	141.113281
945.675846	0.652812	-413.769531	141.113281
945.677846	0.827011	-413.769531	141.113281
945.679845	0.827054	9.097599	1.620386
946.727885	0.603051	-277.636719	-90.332031
946.729887	0.819297	-277.636719	-90.332031
946.731887	0.826984	-277.636719	-90.332031
946.733887	0.824938	9.074317	1.619785
947.753883	0.808591	-414.160156	153.906250
947.755885	0.827638	-414.160156	153.906250
947.759881	0.824108	9.065189	1.620387
948.805887	0.690323	-298.144531	-62.792969
948.807889	0.828377	-298.144531	-62.792969
948.813887	0.823110	9.054209	1.619879
949.829857	0.667416	-406.347656	106.347656
949.831861	0.828018	-406.347656	106.347656
949.833861	0.827170	9.098875	1.620201
950.885873	0.828436	-306.054687	-50.976562
950.887881	0.826955	-306.054687	-50.976562
950.889880	0.825183	9.077011	1.620386
951.904420	0.333010	-414.453125	138.769531
951.906421	0.649396	-414.453125	138.769531
951.908421	0.827576	-414.453125	138.769531
951.910424	0.827837	9.106204	1.620154
952.962515	0.790579	-297.656250	-62.695312
952.964515	0.827439	-297.656250	-62.695312
952.966515	0.825177	9.076950	1.620551
953.983109	0.532785	-415.136719	141.699219
953.985112	0.795520	-415.136719	141.699219
953.987112	0.827093	-415.136719	141.699219
953.989112	0.824777	9.072545	1.620269
955.039125	0.710862	-297.558594	-62.792969
955.041125	0.829023	-297.558594	-62.792969
955.043126	0.826535	9.091883	1.620267
956.059615	0.323605	-414.843750	147.949219
956.061619	0.640518	-414.843750	147.949219
956.063616	0.826002	-414.843750	147.949219
956.065616	0.827282	9.100099	1.620599
957.113690	0.321234	-292.578125	-69.531250
957.115695	0.638276	-292.578125	-69.531250
957.117693	0.826188	-292.578125	-69.531250
957.119694	0.827605	9.103652	1.620165
958.137649	0.314757	-415.722656	148.339844
958.139663	0.632385	-415.722656	148.339844
958.141669	0.825218	-415.722656	148.339844
958.143668	0.827035	-415.722656	148.339844
958.145669	0.825171	9.076879	1.620489
959.191707	0.546062	-277.050781	-89.941406
959.193707	0.801550	-277.050781	-89.941406
959.197706	0.825237	-277.050781	-89.941406
959.199708	0.823500	9.058498	1.619996
960.217761	0.596510	-409.179687	110.937500
960.219763	0.817869	-409.179687	110.937500
960.221763	0.826940	-409.179687	110.937500
960.223763	0.824920	9.074122	1.620530
961.268363	0.592759	-298.632812	-62.792969
961.270365	0.816714	-298.632812	-62.792969
961.272368	0.826839	-298.632812	-62.792969
961.274364	0.824660	9.071260	1.620015
962.294891	0.417503	-416.015625	134.570312
962.296893	0.724573	-416.015625	134.570312
962.298893	0.834294	-416.015625	134.570312
962.300895	0.831689	9.148575	1.620282
963.342875	0.320160	-272.656250	-97.167969
963.346879	0.825927	-272.656250	-97.167969
963.348880	0.827527	-272.656250	-97.167969
963.350881	0.825653	9.082178	1.620149
964.374875	0.534750	-417.480469	134.667969
964.376877	0.796720	-417.480469	134.667969
964.378877	0.827587	-417.480469	134.667969
964.380877	0.825263	9.077889	1.620359
965.422890	0.826766	-309.277344	-51.074219
965.424892	0.826669	-309.277344	-51.074219
965.426891	0.824612	9.070728	1.620200
