time (s)	coil I (A)	last det (V)	int current (uC)
6138.764377	0.331605	-54.882812	173.828125
6138.766378	0.648186	-54.882812	173.828125
6138.768380	0.826620	-54.882812	173.828125
6138.770380	0.827038	9.097413	0.064258
6139.856366	0.397614	-139.453125	-182.324219
6139.858367	0.707763	-139.453125	-182.324219
6139.860367	0.828888	-139.453125	-182.324219
6139.862367	0.826563	9.092193	0.078057
6140.848418	0.606046	-45.898437	171.875000
6140.850420	0.819690	-45.898437	171.875000
6140.852419	0.826390	-45.898437	171.875000
6140.854418	0.824351	9.067865	0.316901
6141.934452	0.697620	-142.285156	-179.785156
6141.936455	0.827887	-142.285156	-179.785156
6141.938454	0.825702	9.082719	0.081739
6142.929469	0.826051	-62.304687	170.410156
6142.931469	0.825699	9.082693	0.064382
6144.008061	0.378126	-138.378906	-177.929687
6144.010061	0.691097	-138.378906	-177.929687
6144.012063	0.828818	-138.378906	-177.929687
6144.014064	0.826843	9.095277	0.087577
6145.004116	0.725783	-78.027344	168.359375
6145.006118	0.827581	-78.027344	168.359375
6145.008118	0.824962	9.074583	0.070708
6146.084688	0.453526	-139.941406	-175.585937
6146.086690	0.750400	-139.941406	-175.585937
6146.088690	0.827514	-139.941406	-175.585937
6146.090689	0.827400	9.101401	0.084810
6147.082681	0.469391	-82.324219	167.089844
6147.084682	0.760763	-82.324219	167.089844
6147.086682	0.826887	-82.324219	167.089844
6147.092682	0.821419	9.035607	0.066242
6148.162737	0.507050	-142.382812	-174.414062
6148.164739	0.782827	-142.382812	-174.414062
6148.166739	0.826684	-142.382812	-174.414062
6148.168738	0.824108	9.065189	0.077525
6149.160721	0.440867	-33.496094	165.722656
6149.162722	0.741513	-33.496094	165.722656
6149.164723	0.827478	-33.496094	165.722656
6149.166724	0.824898	9.073883	0.063763
6150.240769	0.715350	-141.699219	-173.242187
6150.242771	0.827871	-141.699219	-173.242187
6150.244771	0.825319	9.078509	0.082350
6151.237344	0.352779	-56.933594	166.406250
6151.239346	0.667956	-56.933594	166.406250
6151.241346	0.826351	-56.933594	166.406250
6151.243346	0.825164	9.076799	0.067123
6152.317414	0.475310	-140.527344	-173.535156
6152.319415	0.764737	-140.527344	-173.535156
6152.321414	0.827204	-140.527344	-173.535156
6152.323415	0.824480	9.069275	0.082754
6153.315908	0.570396	-34.082031	165.625000
6153.317909	0.810146	-34.082031	165.625000
6153.319911	0.826448	-34.082031	165.625000
6153.321910	0.824249	9.066740	0.066317
6154.393965	0.375497	-139.746094	-173.925781
6154.395966	0.688636	-139.746094	-173.925781
6154.397968	0.828252	-139.746094	-173.925781
6154.399968	0.826287	9.089152	0.083698
6155.396010	0.703570	-69.335937	167.089844
6155.398014	0.827465	-69.335937	167.089844
6155.400018	0.825013	9.075142	0.066574
6156.472567	0.597563	-135.742187	-174.707031
6156.474572	0.817354	-135.742187	-174.707031
6156.476580	0.825931	-135.742187	-174.707031
6156.478582	0.823778	9.061556	0.078286
6157.472656	0.623292	-68.164062	168.554687
6157.474658	0.822353	-68.164062	168.554687
6157.476657	0.825700	-68.164062	168.554687
6157.478658	0.823480	9.058286	0.062807
6158.549254	0.360036	-135.253906	-176.171875
6158.551258	0.674715	-135.253906	-176.171875
6158.553260	0.827828	-135.253906	-176.171875
6158.555263	0.826489	9.091377	0.077623
6159.551338	0.828139	-59.375000	171.191406
6159.553340	0.825812	-59.375000	171.191406
6159.555340	0.823944	9.063382	0.061040
6160.629941	0.428405	-135.839844	-178.125000
6160.631942	0.732146	-135.839844	-178.125000
6160.633942	0.827697	-135.839844	-178.125000
6160.635944	0.825032	9.075355	0.081183
6161.626000	0.762048	-45.214844	172.460937
6161.628003	0.826875	-45.214844	172.460937
6161.630004	0.824101	9.065109	0.063643
6162.710068	1.338405	-133.984375	-179.785156
6162.712071	0.825900	-133.984375	-179.785156
6162.714069	0.826150	9.087646	0.082042
6163.698511	0.371687	-27.246094	174.023437
6163.700514	0.685260	-27.246094	174.023437
6163.702512	0.828090	-27.246094	174.023437
6163.704514	0.826350	9.089853	0.064225
6164.790519	0.599249	-137.988281	-180.957031
6164.792520	0.818069	-137.988281	-180.957031
6164.794521	0.826287	-137.988281	-180.957031
6164.798519	0.822597	9.048564	0.300241
6165.775104	0.746562	-1.074219	174.121094
6165.777106	0.827369	-1.074219	174.121094
6165.779106	0.824755	9.072306	0.060203
6166.869608	0.498529	-137.695312	-179.785156
6166.871610	0.778298	-137.695312	-179.785156
6166.873610	0.826961	-137.695312	-179.785156
6166.875610	0.824437	9.068806	0.076111
6167.847663	0.356040	-44.335937	173.242187
6167.849664	0.670967	-44.335937	173.242187
6167.851664	0.827365	-44.335937	173.242187
6167.853663	0.826219	9.088408	0.060149
6168.949695	0.305077	-138.183594	-176.171875
6168.951695	0.623006	-138.183594	-176.171875
6168.953697	0.822931	-138.183594	-176.171875
6168.955696	0.826579	-138.183594	-176.171875
6168.957697	0.824563	9.070189	0.082028
6169.923690	0.418102	-25.195312	170.605469
6169.925691	0.724283	-25.195312	170.605469
6169.927693	0.828366	-25.195312	170.605469
6169.929692	0.825903	9.084934	0.059616
6171.027731	0.444832	-139.160156	-170.996094
6171.029731	0.744342	-139.160156	-170.996094
6171.031732	0.827710	-139.160156	-170.996094
6171.033731	0.825056	9.075620	0.079492
6172.001804	0.562230	-12.402344	167.382812
6172.003805	0.807412	-12.402344	167.382812
6172.005804	0.826360	-12.402344	167.382812
6172.007804	0.823934	9.063274	0.087481
6173.105840	0.587847	-144.531250	-167.382812
6173.107844	0.815156	-144.531250	-167.382812
6173.109841	0.826236	-144.531250	-167.382812
6173.111844	0.823924	9.063169	0.239825
6174.077894	0.391025	-43.359375	165.429687
6174.079894	0.702204	-43.359375	165.429687
6174.081892	0.828781	-43.359375	165.429687
6174.083894	0.826532	9.091856	0.059415
6175.180912	0.418666	-140.917969	-165.429687
6175.182913	0.725003	-140.917969	-165.429687
6175.184916	0.828883	-140.917969	-165.429687
6175.188914	0.824621	9.070834	0.079594
6176.156947	0.442339	-20.605469	162.890625
6176.158950	0.742429	-20.605469	162.890625
6176.160949	0.827351	-20.605469	162.890625
6176.162949	0.824734	9.072076	0.059316
6177.255086	0.425959	-142.480469	-165.039062
6177.257086	0.730348	-142.480469	-165.039062
6177.259087	0.827809	-142.480469	-165.039062
6177.261087	0.825213	9.077340	0.079836
6178.239145	0.424014	0.097656	161.718750
6178.241148	0.728772	0.097656	161.718750
6178.243146	0.827422	0.097656	161.718750
6178.245145	0.824822	9.073042	0.058953
6179.329219	0.261131	-139.941406	-165.917969
6179.331218	0.581493	-139.941406	-165.917969
6179.333218	0.813600	-139.941406	-165.917969
6179.335219	0.826757	-139.941406	-165.917969
6179.337222	0.824538	9.069921	0.078315
6180.321213	0.805526	-20.312500	161.328125
6180.323214	0.826797	-20.312500	161.328125
6180.325214	0.824708	9.071792	0.067272
6181.407247	0.643998	-137.011719	-167.187500
6181.409248	0.824814	-137.011719	-167.187500
6181.411248	0.825425	9.079670	0.074775
6182.399229	0.520293	-38.085937	161.328125
6182.401230	0.789642	-38.085937	161.328125
6182.403230	0.826712	-38.085937	161.328125
6182.405230	0.824264	9.066900	0.056147
6183.483302	0.703015	-134.863281	-168.847656
6183.485305	0.828020	-134.863281	-168.847656
6183.487305	0.825743	9.083171	0.076060
6184.479325	0.812756	-49.707031	161.718750
6184.481331	0.825681	-49.707031	161.718750
6184.483329	0.823310	9.056407	0.197524
6185.557894	0.540970	-135.839844	-170.312500
6185.559898	0.799350	-135.839844	-170.312500
6185.561896	0.826914	-135.839844	-170.312500
6185.563897	0.824681	9.071490	0.073390
6186.557970	2.933600	-37.695312	162.597656
6186.559971	0.825296	-37.695312	162.597656
6186.561972	0.825997	9.085962	0.496546
6187.634542	1.455420	-134.863281	-171.777344
6187.636543	0.797911	-134.863281	-171.777344
6187.638544	0.826681	-134.863281	-171.777344
6187.640544	0.824351	9.067857	0.074068
6188.634583	0.628346	-43.652344	163.281250
6188.636584	0.823800	-43.652344	163.281250
6188.638584	0.825567	-43.652344	163.281250
6188.642583	0.822003	9.042032	0.425066
6189.711220	0.536020	-136.621094	-172.949219
6189.713220	0.796714	-136.621094	-172.949219
6189.717220	0.823729	-136.621094	-172.949219
6189.719222	0.822268	9.044949	0.075256
6190.711205	0.543915	-58.398437	163.671875
6190.713206	0.800246	-58.398437	163.671875
6190.715206	0.826347	-58.398437	163.671875
6190.717206	0.823989	9.063878	0.057810
6191.787274	0.441605	-139.843750	-173.437500
6191.791274	0.827295	-139.843750	-173.437500
6191.793276	0.824652	-139.843750	-173.437500
6191.795275	0.822884	9.051727	0.076250
6192.789320	0.690133	-2.539062	163.574219
6192.791322	0.827710	-2.539062	163.574219
6192.793325	0.825668	9.082347	0.060007
6193.865873	0.583787	-137.109375	-172.363281
6193.867877	0.814136	-137.109375	-172.363281
6193.869876	0.826401	-137.109375	-172.363281
6193.871876	0.824086	9.064941	0.075189
6194.866503	0.447903	-4.785156	163.476562
6194.868505	0.746253	-4.785156	163.476562
6194.870504	0.827100	-4.785156	163.476562
6194.872505	0.824467	9.069142	0.056732
6195.944472	0.483697	-137.402344	-171.582031
6195.946479	0.769611	-137.402344	-171.582031
6195.948486	0.826574	-137.402344	-171.582031
6195.950489	0.823978	9.063753	0.072220
6196.944496	0.576251	-8.691406	162.988281
6196.946500	0.811736	-8.691406	162.988281
6196.948500	0.826122	-8.691406	162.988281
6196.950502	0.823809	9.061901	0.162495
6198.020582	0.395883	-135.253906	-170.507812
6198.022583	0.706110	-135.253906	-170.507812
6198.024584	0.828554	-135.253906	-170.507812
6198.026586	0.826269	9.088958	0.073911
6199.020582	0.485986	-0.488281	162.207031
6199.022583	0.770942	-0.488281	162.207031
6199.024583	0.826569	-0.488281	162.207031
6199.026583	0.824030	9.064330	0.055210
6200.098608	0.527184	-137.207031	-169.238281
6200.100607	0.792576	-137.207031	-169.238281
6200.102609	0.826134	-137.207031	-169.238281
6200.104609	0.823588	9.059464	0.074193
6201.097194	0.559084	-55.175781	161.914062
6201.099198	0.805967	-55.175781	161.914062
6201.101195	0.826017	-55.175781	161.914062
6201.103197	0.823622	9.059836	0.056708
6202.179286	0.514198	-133.496094	-167.480469
6202.181286	0.786672	-133.496094	-167.480469
6202.183286	0.826930	-133.496094	-167.480469
6202.185285	0.824598	9.070578	0.071050
6203.173266	0.625054	-27.343750	161.425781
6203.175268	0.823269	-27.343750	161.425781
6203.177268	0.826378	-27.343750	161.425781
6203.179269	0.824292	9.067210	0.055338
6204.257922	0.498638	-136.425781	-166.406250
6204.259923	0.778434	-136.425781	-166.406250
6204.261923	0.826924	-136.425781	-166.406250
6204.263921	0.824415	9.068566	0.073411
6205.245941	0.396881	-14.257812	160.839844
6205.247941	0.706820	-14.257812	160.839844
6205.249945	0.827772	-14.257812	160.839844
6205.253943	0.823468	9.058144	0.056663
6206.338014	0.474735	-137.890625	-165.625000
6206.340015	0.764304	-137.890625	-165.625000
6206.342017	0.826959	-137.890625	-165.625000
6206.344015	0.824317	9.067485	0.074125
6207.320065	0.315593	-33.789062	161.621094
6207.322073	0.632856	-33.789062	161.621094
6207.324079	0.823912	-33.789062	161.621094
6207.326079	0.825663	9.082294	0.056142
6208.418098	0.527842	-137.695312	-165.625000
6208.420099	0.793451	-137.695312	-165.625000
6208.422098	0.826850	-137.695312	-165.625000
6208.424100	0.824539	9.069931	0.071224
6209.394044	0.378728	-18.164062	162.695312
6209.396048	0.691471	-18.164062	162.695312
6209.398054	0.828623	-18.164062	162.695312
6209.400057	0.826677	9.093443	0.056151
6210.496648	0.421317	-139.550781	-166.503906
6210.498650	0.726586	-139.550781	-166.503906
6210.500647	0.827598	-139.550781	-166.503906
6210.502650	0.824923	9.074158	0.072552
6211.470659	0.368632	3.906250	163.964844
6211.472661	0.382128	3.906250	163.964844
6211.474660	0.827723	3.906250	163.964844
6211.476660	0.826135	9.087486	0.053106
6212.576676	0.546171	-136.523437	-168.750000
6212.578677	0.801241	-136.523437	-168.750000
6212.580678	0.803500	-136.523437	-168.750000
6212.582678	0.824262	9.066882	0.074257
6213.550650	0.776895	1.757812	166.210937
6213.552653	0.826565	1.757812	166.210937
6213.554653	0.824045	9.064498	0.052678
6214.653258	0.611404	-136.621094	-172.753906
6214.655260	0.820214	-136.621094	-172.753906
6214.657259	0.825802	-136.621094	-172.753906
6214.659259	0.823539	9.058924	0.351256
6215.627284	0.483567	15.332031	168.847656
6215.629287	0.769532	15.332031	168.847656
6215.631288	0.826646	15.332031	168.847656
6215.633289	0.824132	9.065455	0.051867
6216.729316	0.515952	-133.300781	-176.171875
6216.731317	0.787573	-133.300781	-176.171875
6216.733315	0.827001	-133.300781	-176.171875
6216.735317	0.824586	9.070444	0.072632
6217.707398	0.801876	-8.789062	171.582031
6217.711400	0.823684	-8.789062	171.582031
6217.713400	0.822250	9.044753	0.051448
6218.805969	0.672306	-131.640625	-179.296875
6218.807973	0.827226	-131.640625	-179.296875
6218.809972	0.826011	9.086123	0.654647
6219.785952	0.435436	-18.554687	172.851562
6219.787952	0.737403	-18.554687	172.851562
6219.791951	0.825237	-18.554687	172.851562
6219.793955	0.823453	9.057984	0.053989
6220.880947	0.649429	-135.449219	-181.835937
6220.882949	0.825743	-135.449219	-181.835937
6220.884951	0.825984	9.085821	0.537022
6221.864950	0.557969	-9.472656	172.949219
6221.866950	0.805406	-9.472656	172.949219
6221.868952	0.825914	-9.472656	172.949219
6221.870952	0.823591	9.059500	0.063535
6222.955533	0.484211	-131.542969	-181.542969
6222.957536	0.770633	-131.542969	-181.542969
6222.959535	0.828564	-131.542969	-181.542969
6222.963534	0.824695	9.071641	0.072049
6223.943557	0.380698	19.531250	171.582031
6223.945557	0.693116	19.531250	171.582031
6223.947558	0.828035	19.531250	171.582031
6223.949558	0.826013	9.086140	0.053708
6225.031546	0.540036	-131.054687	-181.054687
6225.033547	0.798770	-131.054687	-181.054687
6225.035547	0.826636	-131.054687	-181.054687
6225.037546	0.824295	9.067245	0.069711
6226.023603	0.506876	4.296875	170.996094
6226.025605	0.782746	4.296875	170.996094
6226.027607	0.826457	4.296875	170.996094
6226.029606	0.823907	9.062974	0.052550
6227.107681	0.614784	-129.101562	-180.078125
6227.111680	0.825790	-129.101562	-180.078125
6227.113687	0.823464	-129.101562	-180.078125
6227.117687	0.821330	9.034632	0.362356
6228.099738	0.340430	10.546875	169.921875
6228.101738	0.656449	10.546875	169.921875
6228.103739	0.826106	10.546875	169.921875
6228.105738	0.825814	9.083951	0.054830
6229.185806	0.819564	-129.199219	-179.199219
6229.187808	0.825717	-129.199219	-179.199219
6229.189809	0.823502	9.058525	0.332875
6230.177766	0.311479	-20.703125	169.628906
6230.179783	0.628901	-20.703125	169.628906
6230.181779	0.823664	-20.703125	169.628906
6230.183781	0.826009	-20.703125	169.628906
6230.185780	0.823939	9.063328	0.055048
6231.260404	0.598572	-130.761719	-179.003906
6231.262405	0.817448	-130.761719	-179.003906
6231.264405	0.825761	-130.761719	-179.003906
6231.266408	0.823398	9.057373	0.285130
6232.260387	0.795763	-22.265625	169.042969
6232.262389	0.826657	-22.265625	169.042969
6232.264390	0.824306	9.067361	0.051732
6233.336443	0.418509	-130.175781	-178.515625
6233.338445	0.724550	-130.175781	-178.515625
6233.340446	0.828443	-130.175781	-178.515625
6233.342444	0.825960	9.085555	0.071965
6234.338482	0.826701	-18.164062	169.335937
6234.340484	0.824307	9.067379	0.052259
6235.415088	0.407487	-130.078125	-179.101562
6235.417090	0.715605	-130.078125	-179.101562
6235.419091	0.827935	-130.078125	-179.101562
6235.421090	0.825443	9.079874	0.070421
6236.413137	0.790121	-11.523437	169.726562
6236.415136	0.827054	-11.523437	169.726562
6236.417137	0.824720	9.071916	0.053266
6237.493755	0.559255	-130.371094	-179.492187
6237.495756	0.806378	-130.371094	-179.492187
6237.497758	0.826504	-130.371094	-179.492187
6237.499757	0.824355	9.067902	0.092567
6238.487802	0.519854	-0.390625	170.117187
6238.489805	0.789195	-0.390625	170.117187
6238.491804	0.826426	-0.390625	170.117187
6238.493806	0.823875	9.062629	0.052760
6239.569791	0.379898	-129.785156	-180.468750
6239.571792	0.692361	-129.785156	-180.468750
6239.573793	0.828544	-129.785156	-180.468750
6239.575793	0.826613	9.092743	0.070530
6240.565829	0.777743	9.472656	170.800781
6240.567830	0.826968	9.472656	170.800781
6240.569831	0.824550	9.070045	0.052899
6241.647840	0.352136	-129.296875	-181.542969
6241.649843	0.667398	-129.296875	-181.542969
6241.651843	0.826760	-129.296875	-181.542969
6241.653844	0.825725	9.082975	0.069673
6242.639859	0.477271	14.746094	171.386719
6242.641861	0.765824	14.746094	171.386719
6242.645860	0.824450	14.746094	171.386719
6242.647860	0.824408	9.068486	0.051098
6243.727972	0.331636	-130.273437	-182.128906
6243.729974	0.648175	-130.273437	-182.128906
6243.731973	0.826200	-130.273437	-182.128906
6243.733973	0.826769	9.094461	0.070753
6244.713998	0.317163	32.519531	171.386719
6244.716002	0.634369	32.519531	171.386719
6244.718007	0.825474	32.519531	171.386719
6244.720007	0.827265	9.099912	0.050991
6245.806121	0.405806	-131.738281	-181.542969
6245.808124	0.714257	-131.738281	-181.542969
6245.810123	0.827829	-131.738281	-181.542969
6245.812124	0.825324	9.078563	0.069335
6246.790090	0.304945	30.468750	171.386719
6246.792090	0.622827	30.468750	171.386719
6246.794090	0.822324	30.468750	171.386719
6246.796090	0.825839	30.468750	171.386719
6246.798089	0.823613	9.059748	0.050140
6247.890122	0.826806	-133.886719	-179.492187
6247.892124	0.825180	9.076985	0.071369
6248.868743	0.759661	49.804687	169.628906
6248.870744	0.827101	49.804687	169.628906
6248.872745	0.824438	9.068823	0.049856
6249.966785	0.509819	-135.839844	-176.855469
6249.968787	0.784268	-135.839844	-176.855469
6249.972784	0.823998	-135.839844	-176.855469
6249.974786	0.823949	9.063443	0.067605
6250.942847	0.639427	7.226562	168.652344
6250.944850	0.827113	7.226562	168.652344
6250.946850	0.824521	9.069736	0.047836
6252.043404	0.337467	-134.765625	-173.046875
6252.045406	0.653630	-134.765625	-173.046875
6252.047407	0.826151	-134.765625	-173.046875
6252.049405	0.826055	9.086610	0.073523
6253.017402	0.529806	26.953125	165.429687
6253.019403	0.794208	26.953125	165.429687
6253.021404	0.826747	26.953125	165.429687
6253.023403	0.824321	9.067529	0.048686
6254.121416	0.391569	-134.472656	-169.726562
6254.123418	0.702450	-134.472656	-169.726562
6254.125420	0.828681	-134.472656	-169.726562
6254.127421	0.826468	9.091147	0.070835
6255.093500	0.357759	42.871094	163.085937
6255.095502	0.672435	42.871094	163.085937
6255.097503	0.827471	42.871094	163.085937
6255.099503	0.826312	9.089437	0.048920
6256.199505	0.531970	-135.937500	-167.285156
6256.201507	0.794912	-135.937500	-167.285156
6256.203507	0.826119	-135.937500	-167.285156
6256.205507	0.823660	9.060262	0.069571
6257.173457	0.470296	15.820312	161.914062
6257.175459	0.761267	15.820312	161.914062
6257.177460	0.764923	15.820312	161.914062
6257.179460	0.823803	9.061831	0.049200
6258.278092	0.817627	-135.839844	-166.210937
6258.280094	0.825711	-135.839844	-166.210937
6258.282093	0.823498	9.058481	0.289229
6259.256064	0.819478	19.335937	160.839844
6259.258066	0.825373	19.335937	160.839844
6259.262065	0.821804	9.039844	0.048356
6260.350623	0.665871	-138.476562	-166.113281
6260.354624	0.825504	-138.476562	-166.113281
6260.356626	0.823516	9.058676	0.068574
6261.331151	0.592052	33.398437	159.863281
6261.333154	0.815878	33.398437	159.863281
6261.335153	0.825765	33.398437	159.863281
6261.337156	0.823512	9.058632	0.050609
6262.423231	0.348644	-135.644531	-165.917969
6262.425234	0.663989	-135.644531	-165.917969
6262.427234	0.826461	-135.644531	-165.917969
6262.429232	0.825646	9.082108	0.069545
6263.413323	0.724741	48.632812	159.375000
6263.415324	0.827368	48.632812	159.375000
6263.417323	0.824611	9.070720	0.047217
6264.499415	0.352192	-132.617187	-166.113281
6264.501416	0.667423	-132.617187	-166.113281
6264.503416	0.827394	-132.617187	-166.113281
6264.505417	0.826408	9.090491	0.067344
6265.489394	1.417973	12.109375	159.863281
6265.491396	0.766962	12.109375	159.863281
6265.493396	0.826504	12.109375	159.863281
6265.495397	0.823831	9.062140	0.048405
6266.579400	0.826899	-130.468750	-166.992187
6266.581403	0.824313	9.067440	0.065908
6267.567433	0.369263	19.531250	159.960937
6267.569436	0.682922	19.531250	159.960937
6267.571435	0.827176	19.531250	159.960937
6267.573434	0.825441	9.079847	0.049268
6268.653521	0.806479	-128.906250	-167.480469
6268.655521	0.826564	-128.906250	-167.480469
6268.657523	0.824260	9.066865	0.088815
6269.649946	0.809768	3.613281	160.742187
6269.651947	0.826115	3.613281	160.742187
6269.653949	0.823881	9.062690	0.125717
6270.730535	0.795546	-128.613281	-168.066406
6270.732536	0.826415	-128.613281	-168.066406
6270.734539	0.823961	9.063577	0.065746
6271.725020	0.633779	1.660156	160.839844
6271.727026	0.824317	1.660156	160.839844
6271.729024	0.826010	9.086104	0.431252
6272.807593	0.786147	-129.199219	-168.554687
6272.809595	0.826167	-129.199219	-168.554687
6272.811596	0.823686	9.060545	0.065207
6273.801603	0.540910	-1.464844	160.937500
6273.803605	0.798593	-1.464844	160.937500
6273.805604	0.825936	-1.464844	160.937500
6273.809603	0.822048	9.042529	0.050436
6274.882097	0.407216	-129.492187	-168.750000
6274.884099	0.715955	-129.492187	-168.750000
6274.886099	0.831186	-129.492187	-168.750000
6274.888097	0.828480	9.113276	0.067898
6275.878054	0.425509	-9.667969	160.546875
6275.880056	0.729794	-9.667969	160.546875
6275.882056	0.827456	-9.667969	160.546875
6275.884058	0.824829	9.073121	0.048192
6276.961028	0.745759	-131.445312	-169.335937
6276.963030	0.827377	-131.445312	-169.335937
6276.965029	0.824603	9.070631	0.066128
6277.955059	0.556514	-2.734375	159.863281
6277.957061	0.805086	-2.734375	159.863281
6277.959061	0.826315	-2.734375	159.863281
6277.961062	0.823835	9.062185	0.056308
6279.035649	0.358425	-131.250000	-168.652344
6279.037650	0.673072	-131.250000	-168.652344
6279.039651	0.826723	-131.250000	-168.652344
6279.041651	0.825397	9.079370	0.067167
6280.031628	0.380352	5.859375	159.277344
6280.033629	0.692621	5.859375	159.277344
6280.035630	0.827574	5.859375	159.277344
6280.037630	0.825495	9.080441	0.048690
6281.114253	0.502454	-130.957031	-167.773437
6281.116257	0.780199	-130.957031	-167.773437
6281.118258	0.826107	-130.957031	-167.773437
6281.120256	0.823568	9.059242	0.066100
6282.108329	0.386948	39.746094	159.179687
6282.110332	0.698606	39.746094	159.179687
6282.112331	0.828648	39.746094	159.179687
6282.114330	0.826476	9.091236	0.047798
6283.194383	0.483732	-129.296875	-165.917969
6283.196384	0.769629	-129.296875	-165.917969
6283.198384	0.826716	-129.296875	-165.917969
6283.200384	0.824156	9.065713	0.064471
6284.184438	0.460087	45.996094	159.667969
6284.186440	0.754539	45.996094	159.667969
6284.188442	0.826718	45.996094	159.667969
6284.190443	0.823917	9.063089	0.046777
6285.270517	1.428649	-131.250000	-165.429687
6285.274521	0.823565	-131.250000	-165.429687
6285.276520	0.825546	-131.250000	-165.429687
6285.278522	0.823557	9.059128	0.066021
6286.258505	0.370877	40.039062	160.351562
6286.262507	0.826921	40.039062	160.351562
6286.264507	0.825064	40.039062	160.351562
6286.266507	0.822982	9.052800	0.046898
6287.350548	0.444442	-131.640625	-163.867187
6287.352552	0.743901	-131.640625	-163.867187
6287.354550	0.827647	-131.640625	-163.867187
6287.356551	0.825027	9.075293	0.066566
6288.336590	0.789472	14.257812	161.523437
6288.340588	0.823774	14.257812	161.523437
6288.342591	0.822356	9.045914	0.045036
6289.430654	0.420097	-136.523437	-164.843750
6289.432655	0.725763	-136.523437	-164.843750
6289.434654	0.828114	-136.523437	-164.843750
6289.436656	0.825497	9.080468	0.065090
6290.408713	0.441554	58.203125	160.937500
6290.410717	0.741576	58.203125	160.937500
6290.412715	0.826938	58.203125	160.937500
6290.414715	0.824176	9.065933	0.045784
6291.508699	0.475099	-132.421875	-164.843750
6291.510701	0.764304	-132.421875	-164.843750
6291.512702	0.826827	-132.421875	-164.843750
6291.514703	0.824288	9.067165	0.068179
6292.486690	0.646517	21.289062	162.402344
6292.488691	0.825263	21.289062	162.402344
6292.490691	0.825715	9.082870	0.504108
6293.588730	0.598239	-133.593750	-166.503906
6293.590730	0.817499	-133.593750	-166.503906
6293.592730	0.825785	-133.593750	-166.503906
6293.594730	0.823601	9.059615	0.068010
6294.560774	0.402169	51.660156	163.281250
6294.562776	0.711069	51.660156	163.281250
6294.564778	0.827510	51.660156	163.281250
6294.566778	0.824911	9.074025	0.045068
6295.664846	0.264396	-131.640625	-168.847656
6295.666847	0.584454	-131.640625	-168.847656
6295.668849	0.814365	-131.640625	-168.847656
6295.670847	0.826495	-131.640625	-168.847656
6295.672846	0.824257	9.066829	0.068782
6296.638893	0.545966	36.328125	165.039062
6296.640894	0.801159	36.328125	165.039062
6296.642897	0.826698	36.328125	165.039062
6296.644898	0.824353	9.067883	0.044149
6297.743485	0.579319	-132.714844	-171.582031
6297.745487	0.814169	-132.714844	-171.582031
6297.747485	0.828281	-132.714844	-171.582031
6297.749485	0.828218	9.110395	0.185959
6298.717540	0.693460	50.488281	166.601562
6298.719544	0.827254	50.488281	166.601562
6298.721539	0.824932	9.074246	0.045161
6299.819596	0.571767	-134.765625	-175.000000
6299.821598	0.810159	-134.765625	-175.000000
6299.823597	0.825820	-134.765625	-175.000000
6299.825599	0.823527	9.058800	0.068165
6300.793626	0.362072	22.753906	169.335937
6300.795626	0.676440	22.753906	169.335937
6300.797627	0.827100	22.753906	169.335937
6300.799628	0.825564	9.081203	0.044477
6301.894579	0.386468	-129.296875	-177.148437
6301.896579	0.402706	-129.296875	-177.148437
6301.898581	0.831403	-129.296875	-177.148437
6301.900580	0.829002	9.119019	0.067605
6302.872559	0.637360	24.511719	170.898437
6302.874561	0.824298	24.511719	170.898437
6302.880560	0.822272	9.044992	0.046675
6303.971160	0.532687	-132.226562	-179.492187
6303.973164	0.795315	-132.226562	-179.492187
6303.975163	0.826322	-132.226562	-179.492187
6303.977163	0.823895	9.062850	0.068120
6304.952135	0.530114	57.128906	170.800781
6304.954137	0.793948	57.128906	170.800781
6304.956137	0.826076	57.128906	170.800781
6304.958138	0.823523	9.058756	0.044888
6306.046134	0.426914	-130.566406	-180.761719
6306.048138	0.730862	-130.566406	-180.761719
6306.050138	0.827331	-130.566406	-180.761719
6306.052137	0.824604	9.070640	0.069745
6307.028652	0.257508	36.523437	171.191406
6307.030654	0.577884	36.523437	171.191406
6307.032656	0.812030	36.523437	171.191406
6307.034653	0.825935	36.523437	171.191406
6307.036653	0.823629	9.059916	0.046190
6308.122642	0.562208	-128.515625	-180.957031
6308.124644	0.807422	-128.515625	-180.957031
6308.126643	0.826474	-128.515625	-180.957031
6308.128645	0.824219	9.066403	0.099104
6309.108709	0.635844	9.375000	171.777344
6309.110711	0.824254	9.375000	171.777344
6309.112712	0.825729	9.083020	0.046273
6310.199716	0.625770	-129.687500	-181.347656
6310.201714	0.823652	-129.687500	-181.347656
6310.203712	0.826991	-129.687500	-181.347656
6310.205712	0.824977	9.074743	0.065268
6311.188340	0.696348	31.445312	171.386719
6311.190341	0.827162	31.445312	171.386719
6311.194342	0.822962	9.052579	0.046457
6312.274375	0.390129	-126.074219	-180.175781
6312.276377	0.701327	-126.074219	-180.175781
6312.278377	0.828326	-126.074219	-180.175781
6312.280377	0.826167	9.087832	0.064456
6313.266414	0.677578	54.589844	170.507812
6313.268415	0.827030	54.589844	170.507812
6313.270418	0.825441	9.079847	0.046284
6314.350387	0.366778	-127.539062	-181.152344
6314.352388	0.680609	-127.539062	-181.152344
6314.354389	0.827571	-127.539062	-181.152344
6314.358387	0.823887	9.062761	0.066317
6315.340392	0.247304	52.441406	169.824219
6315.342393	0.568414	52.441406	169.824219
6315.344394	0.809339	52.441406	169.824219
6315.346394	0.826271	52.441406	169.824219
6315.348395	0.823843	9.062274	0.046749
6316.428432	0.422195	-126.269531	-180.566406
6316.430429	0.727500	-126.269531	-180.566406
6316.432430	0.828725	-126.269531	-180.566406
6316.434430	0.826138	9.087514	0.064592
6317.418474	0.477066	46.679687	170.019531
6317.420476	0.765375	46.679687	170.019531
6317.424475	0.823634	46.679687	170.019531
6317.426475	0.821982	9.041801	0.046306
6318.508549	0.716384	-125.292969	-180.566406
6318.510551	0.828124	-125.292969	-180.566406
6318.512552	0.825682	9.082498	0.063953
6319.495054	0.297791	61.816406	169.824219
6319.497056	0.615994	61.816406	169.824219
6319.499055	0.821064	61.816406	169.824219
6319.501058	0.825740	61.816406	169.824219
6319.503057	0.823551	9.059056	0.045495
6320.585109	0.623620	-125.878906	-181.250000
6320.587112	0.821992	-125.878906	-181.250000
6320.589112	0.825295	-125.878906	-181.250000
6320.591112	0.823068	9.053748	0.064455
6321.577077	0.826125	60.937500	170.117187
6321.579080	0.823507	60.937500	170.117187
6321.581077	0.822104	9.043139	0.044494
6322.661152	0.444796	-126.953125	-181.250000
6322.663150	0.744101	-126.953125	-181.250000
6322.665149	0.827340	-126.953125	-181.250000
6322.667150	0.824617	9.070790	0.063925
6323.647180	0.263359	51.660156	170.703125
6323.653178	0.826260	51.660156	170.703125
6323.655179	0.824023	51.660156	170.703125
6323.657180	0.822477	9.047243	0.046077
6324.739267	0.349156	-126.757812	-180.761719
6324.743268	0.826278	-126.757812	-180.761719
6324.747267	0.823167	-126.757812	-180.761719
6324.749270	0.822009	9.042103	0.064997
6325.725344	0.426102	73.339844	170.214844
6325.727346	0.730184	73.339844	170.214844
6325.729345	0.734488	73.339844	170.214844
6325.731346	0.824549	9.070037	0.043387
6326.819384	0.490778	-128.906250	-180.664062
6326.821385	0.773761	-128.906250	-180.664062
6326.823385	0.826763	-128.906250	-180.664062
6326.825386	0.824314	9.067458	0.063857
6327.803392	0.773170	83.007812	169.628906
6327.805394	0.827058	83.007812	169.628906
6327.807396	0.824598	9.070578	0.042400
6328.895811	0.369250	-131.250000	-179.980469
6328.897813	0.682783	-131.250000	-179.980469
6328.899813	0.827581	-131.250000	-179.980469
6328.901814	0.825777	9.083543	0.068054
6329.876409	0.470086	63.574219	169.238281
6329.878410	0.761315	63.574219	169.238281
6329.880411	0.827133	63.574219	169.238281
6329.882410	0.824446	9.068903	0.043329
6330.974466	0.440896	-131.152344	-177.929687
6330.976469	0.741144	-131.152344	-177.929687
6330.978468	0.826872	-131.152344	-177.929687
6330.980468	0.824059	9.064650	0.065786
6331.952432	0.366935	28.222656	168.652344
6331.954434	0.680645	28.222656	168.652344
6331.956437	0.827363	28.222656	168.652344
6331.958437	0.825693	9.082622	0.041738
6333.054428	0.476462	-130.859375	-175.390625
6333.058431	0.828999	-130.859375	-175.390625
6333.060438	0.826611	-130.859375	-175.390625
6333.062444	0.825018	9.075194	0.064292
6334.028520	0.354509	63.867187	165.625000
6334.030523	0.669413	63.867187	165.625000
6334.032521	0.826416	63.867187	165.625000
6334.034523	0.825211	9.077322	0.042654
6335.132620	0.629942	-130.371094	-173.339844
6335.134621	0.823638	-130.371094	-173.339844
6335.136620	0.825618	-130.371094	-173.339844
6335.138621	0.823472	9.058188	0.431846
6336.106669	0.588530	63.378906	163.378906
6336.108671	0.815280	63.378906	163.378906
6336.110670	0.826277	63.378906	163.378906
6336.112670	0.824136	9.065491	0.206577
6337.208816	0.557404	-134.082031	-170.898437
6337.212828	0.825983	-134.082031	-170.898437
6337.214827	0.823612	-134.082031	-170.898437
6337.216829	0.822173	9.043902	0.083167
6338.184878	0.787404	54.882812	161.718750
6338.186880	0.826118	54.882812	161.718750
6338.188880	0.823539	9.058924	0.041398
6339.284986	0.477209	-131.542969	-168.066406
6339.286987	0.765635	-131.542969	-168.066406
6339.288987	0.826906	-131.542969	-168.066406
6339.290985	0.824256	9.066820	0.066684
6340.259462	0.419289	50.097656	160.937500
6340.261464	0.725157	50.097656	160.937500
6340.263464	0.828204	50.097656	160.937500
6340.265465	0.825708	9.082789	0.042914
6341.361531	0.619152	-136.718750	-167.578125
6341.363534	0.821615	-136.718750	-167.578125
6341.365534	0.825695	-136.718750	-167.578125
6341.367532	0.823528	9.058808	0.065892
6342.342038	0.554673	77.148437	159.277344
6342.344041	0.826266	77.148437	159.277344
6342.346041	0.823743	9.061174	0.041458
6343.436041	0.438992	-134.863281	-166.406250
6343.438043	0.739802	-134.863281	-166.406250
6343.440042	0.743646	-134.863281	-166.406250
6343.442042	0.824497	9.069470	0.064157
6344.416626	0.457374	82.812500	158.789062
6344.418628	0.752813	82.812500	158.789062
6344.420629	0.827114	82.812500	158.789062
6344.422628	0.824392	9.068309	0.040357
6345.510715	0.366978	-134.472656	-166.113281
6345.512717	0.680884	-134.472656	-166.113281
6345.514717	0.826670	-134.472656	-166.113281
6345.516716	0.824845	9.073298	0.061562
6346.495296	0.367417	60.058594	158.789062
6346.497298	0.681098	60.058594	158.789062
6346.499297	0.827519	60.058594	158.789062
6346.501299	0.825736	9.083099	0.043336
6347.587363	0.362934	-133.691406	-166.210937
6347.589365	0.676867	-133.691406	-166.210937
6347.593364	0.824380	-133.691406	-166.210937
6347.595365	0.822471	9.047181	0.062964
6348.575419	0.425773	79.785156	157.812500
6348.577420	0.729924	79.785156	157.812500
6348.579421	0.827697	79.785156	157.812500
6348.581421	0.825101	9.076117	0.042181
6349.661833	0.251825	-130.664062	-166.113281
6349.663834	0.572594	-130.664062	-166.113281
6349.665836	0.810359	-130.664062	-166.113281
6349.667836	0.825806	-130.664062	-166.113281
6349.669835	0.823472	9.058188	0.063977
6350.651925	0.402913	65.136719	158.398437
6350.653925	0.711936	65.136719	158.398437
6350.655926	0.828087	65.136719	158.398437
6350.657926	0.825673	9.082400	0.043740
6351.739930	0.483466	-129.199219	-166.210937
6351.741931	0.769433	-129.199219	-166.210937
6351.743933	0.826531	-129.199219	-166.210937
6351.745934	0.823837	9.062211	0.061114
6352.729993	0.380760	49.218750	158.984375
6352.731997	0.693041	49.218750	158.984375
6352.734001	0.828110	49.218750	158.984375
6352.737998	0.824173	9.065898	0.042701
6353.816045	1.850559	-127.539062	-166.308594
6353.818046	0.766141	-127.539062	-166.308594
6353.820047	0.827265	-127.539062	-166.308594
6353.822046	0.824650	9.071154	0.065053
6354.808530	0.592688	57.617187	158.789062
6354.810530	0.816093	57.617187	158.789062
6354.814529	0.823562	57.617187	158.789062
6354.816530	0.822194	9.044132	0.238657
6355.894654	0.759334	-132.128906	-167.382812
6355.896655	0.826776	-132.128906	-167.382812
6355.898656	0.824035	9.064383	0.062180
6356.887634	0.779768	23.828125	159.179687
6356.889637	0.826809	23.828125	159.179687
6356.891637	0.824249	9.066740	0.042633
6357.968220	0.373266	-129.492187	-167.089844
6357.970219	0.686488	-129.492187	-167.089844
6357.972222	0.827384	-129.492187	-167.089844
6357.974221	0.825513	9.080645	0.062632
6358.962328	0.341923	55.371094	158.789062
6358.964328	0.657682	55.371094	158.789062
6358.966329	0.826034	55.371094	158.789062
6358.968328	0.825424	9.079661	0.043422
6360.048402	0.523512	-132.421875	-167.382812
6360.050405	0.790694	-132.421875	-167.382812
6360.052404	0.826062	-132.421875	-167.382812
6360.054406	0.823494	9.058436	0.058994
6361.040408	0.484674	50.878906	158.886719
6361.042409	0.770252	50.878906	158.886719
6361.044410	0.827035	50.878906	158.886719
6361.046411	0.824447	9.068921	0.042257
6362.124503	0.434673	-132.421875	-166.992187
6362.126505	0.736738	-132.421875	-166.992187
6362.128506	0.827978	-132.421875	-166.992187
6362.130504	0.825292	9.078218	0.060464
6363.115474	0.309063	29.882812	159.179687
6363.117483	0.626613	29.882812	159.179687
6363.119482	0.633391	29.882812	159.179687
6363.121480	0.827944	9.107383	0.043221
6364.200025	0.246289	-130.273437	-166.503906
6364.202026	0.567392	-130.273437	-166.503906
6364.204027	0.809112	-130.273437	-166.503906
6364.206025	0.826338	-130.273437	-166.503906
6364.208024	0.824061	9.064667	0.062985
6365.194077	0.614979	67.480469	158.496094
6365.196079	0.820810	67.480469	158.496094
6365.198078	0.825511	67.480469	158.496094
6365.200079	0.823294	9.056238	0.042417
6366.280115	0.626903	-128.417969	-165.820312
6366.282111	0.824386	-128.417969	-165.820312
6366.284110	0.827579	-128.417969	-165.820312
6366.286112	0.825772	9.083490	0.416480
6367.270102	0.674086	71.093750	158.105469
6367.272104	0.826482	71.093750	158.105469
6367.274105	0.824951	9.074460	0.042702
6368.358164	0.362190	-130.664062	-165.820312
6368.360166	0.676617	-130.664062	-165.820312
6368.362166	0.828102	-130.664062	-165.820312
6368.364166	0.826648	9.093123	0.061328
6369.346143	0.727095	68.457031	158.593750
6369.348146	0.826804	68.457031	158.593750
6369.350146	0.824070	9.064773	0.041118
6370.436200	0.416967	-131.933594	-165.722656
6370.438201	0.723361	-131.933594	-165.722656
6370.440203	0.828596	-131.933594	-165.722656
6370.442202	0.826063	9.086689	0.061499
6371.420239	1.647859	80.859375	158.398437
6371.422238	0.719656	80.859375	158.398437
6371.424240	0.828059	80.859375	158.398437
6371.426239	0.825562	9.081186	0.040038
6372.514322	0.483808	-133.105469	-165.722656
6372.516322	0.769604	-133.105469	-165.722656
6372.518324	0.826599	-133.105469	-165.722656
6372.520323	0.823999	9.063993	0.061399
6373.496334	0.480961	92.187500	158.789062
6373.498336	0.767849	92.187500	158.789062
6373.500337	0.826586	92.187500	158.789062
6373.502336	0.823854	9.062398	0.041380
6374.596316	0.740789	-134.375000	-165.722656
6374.598319	0.826969	-134.375000	-165.722656
6374.600318	0.823966	9.063629	0.060815
6375.570893	0.308374	85.156250	159.863281
6375.572904	0.625881	85.156250	159.863281
6375.574903	0.824318	85.156250	159.863281
6375.576900	0.825085	85.156250	159.863281
6375.578901	0.825546	9.081009	0.041649
6376.672897	0.581646	-134.277344	-166.796875
6376.674898	0.813299	-134.277344	-166.796875
6376.676899	0.826197	-134.277344	-166.796875
6376.678897	0.823957	9.063523	0.198947
6377.649855	0.738128	101.074219	160.449219
6377.651856	0.826844	101.074219	160.449219
6377.653857	0.824087	9.064960	0.041456
6378.749989	0.486806	-134.667969	-167.968750
6378.751990	0.771250	-134.667969	-167.968750
6378.753991	0.826325	-134.667969	-167.968750
6378.755989	0.823628	9.059908	0.062830
6379.724940	0.582199	53.222656	162.695312
6379.726941	0.813263	53.222656	162.695312
6379.728941	0.825827	53.222656	162.695312
6379.730940	0.823518	9.058702	0.181003
6380.825877	0.361854	-131.054687	-169.628906
6380.827881	0.676090	-131.054687	-169.628906
6380.829879	0.826809	-131.054687	-169.628906
6380.831878	0.825137	9.076507	0.066061
6381.801929	0.708962	46.582031	164.550781
6381.803930	0.827605	46.582031	164.550781
6381.805932	0.825066	9.075727	0.040545
6382.904518	0.512899	-130.566406	-171.582031
6382.906519	0.786106	-130.566406	-171.582031
6382.908518	0.827034	-130.566406	-171.582031
6382.910518	0.824660	9.071260	0.063124
6383.878525	0.621018	87.792969	164.746094
6383.880525	0.822515	87.792969	164.746094
6383.882528	0.826506	87.792969	164.746094
6383.884526	0.824405	9.068451	0.364413
6384.982617	0.655930	-127.441406	-173.925781
6384.984618	0.827030	-127.441406	-173.925781
6384.986619	0.826942	9.096358	0.557372
6385.956696	0.454690	57.226562	166.406250
6385.958699	0.750716	57.226562	166.406250
6385.960698	0.826739	57.226562	166.406250
6385.962697	0.823914	9.063053	0.039878
6387.057298	0.341004	-128.222656	-176.367187
6387.059301	0.656950	-128.222656	-176.367187
6387.061301	0.662439	-128.222656	-176.367187
6387.063302	0.826183	9.088010	0.063178
6388.035374	0.606984	41.601562	168.652344
6388.037375	0.818920	41.601562	168.652344
6388.039374	0.825171	41.601562	168.652344
6388.041375	0.823036	9.053393	0.295062
6389.133347	0.323213	-126.660156	-177.539062
6389.135349	0.640236	-126.660156	-177.539062
6389.137347	0.824815	-126.660156	-177.539062
6389.139350	0.825881	9.084696	0.063019
6390.113403	0.731109	47.558594	169.042969
6390.115405	0.827311	47.558594	169.042969
6390.117404	0.824509	9.069603	0.039979
6391.209982	0.400421	-126.367187	-178.906250
6391.211983	0.709693	-126.367187	-178.906250
6391.213983	0.827823	-126.367187	-178.906250
6391.215984	0.825436	9.079795	0.061936
6392.190048	0.576977	50.585937	169.726562
6392.192048	0.812038	50.585937	169.726562
6392.194049	0.826203	50.585937	169.726562
6392.196047	0.823907	9.062983	0.042004
6393.288685	0.770755	-125.585937	-180.175781
6393.290683	0.826644	-125.585937	-180.175781
6393.292685	0.824137	9.065509	0.061172
6394.268732	0.409778	46.582031	169.335937
6394.270734	0.717776	46.582031	169.335937
6394.272737	0.829795	46.582031	169.335937
6394.274734	0.827294	9.100230	0.041415
6395.363350	0.565051	-130.078125	-181.445312
6395.365351	0.807747	-130.078125	-181.445312
6395.367351	0.825702	-130.078125	-181.445312
6395.369352	0.823192	9.055113	0.062431
6396.346306	0.551175	71.386719	169.335937
6396.348307	0.802831	71.386719	169.335937
6396.352303	0.823377	71.386719	169.335937
6396.354306	0.821989	9.041882	0.040592
6397.438334	0.377877	-127.929687	-181.152344
6397.440335	0.690596	-127.929687	-181.152344
6397.442336	0.828915	-127.929687	-181.152344
6397.444336	0.826934	9.096270	0.062537
6398.424388	0.688047	95.605469	168.554687
6398.426391	0.827456	95.605469	168.554687
6398.428394	0.825555	9.081106	0.041279
6399.516828	0.733411	-128.320312	-181.738281
6399.518830	0.827650	-128.320312	-181.738281
6399.520830	0.824903	9.073928	0.062213
6400.499416	0.433608	66.015625	169.433594
6400.501419	0.736041	66.015625	169.433594
6400.503417	0.827883	66.015625	169.433594
6400.505418	0.825159	9.076746	0.041725
6401.591477	0.345519	-128.222656	-181.640625
6401.593477	0.661230	-128.222656	-181.640625
6401.595478	0.826589	-128.222656	-181.640625
6401.597477	0.825997	9.085972	0.062545
6402.577486	0.490792	87.011719	169.042969
6402.579489	0.773709	87.011719	169.042969
6402.581487	0.826519	87.011719	169.042969
6402.583487	0.823965	9.063612	0.042028
6403.675498	0.827133	-127.929687	-181.054687
6403.677500	0.822894	9.051834	0.060924
6404.654089	0.400343	74.414062	169.433594
6404.656091	0.709844	74.414062	169.433594
6404.658090	0.827847	74.414062	169.433594
6404.660091	0.825429	9.079715	0.040672
6405.752104	0.820757	-128.417969	-181.250000
6405.754107	0.825429	-128.417969	-181.250000
6405.756105	0.823184	9.055024	0.060738
6406.730737	0.397335	78.125000	169.433594
6406.732744	0.707322	78.125000	169.433594
6406.734743	0.720788	78.125000	169.433594
6406.736742	0.826010	9.086104	0.041201
6407.824789	0.298145	-127.539062	-180.273437
6407.826792	0.616149	-127.539062	-180.273437
6407.828791	0.821303	-127.539062	-180.273437
6407.830793	0.825931	-127.539062	-180.273437
6407.832791	0.823844	9.062283	0.061977
6408.810744	0.792734	97.070312	168.750000
6408.812746	0.826340	97.070312	168.750000
6408.814747	0.823937	9.063302	0.038233
6409.904819	0.737068	-128.613281	-179.785156
6409.908819	0.825077	-128.613281	-179.785156
6409.912820	0.822120	9.043318	0.061383
6410.884916	0.606814	61.718750	169.140625
6410.886917	0.818700	61.718750	169.140625
6410.888916	0.824894	61.718750	169.140625
6410.890917	0.824823	9.073050	0.296558
6411.979495	0.353875	-129.882812	-178.515625
6411.981495	0.668724	-129.882812	-178.515625
6411.983496	0.826334	-129.882812	-178.515625
6411.985498	0.825163	9.076791	0.062017
6412.960046	0.447832	80.175781	167.871094
6412.962050	0.746203	80.175781	167.871094
6412.964050	0.827073	80.175781	167.871094
6412.966049	0.824268	9.066953	0.039393
6414.060072	0.566271	-130.664062	-177.148437
6414.062073	0.808189	-130.664062	-177.148437
6414.064074	0.825651	-130.664062	-177.148437
6414.066073	0.823263	9.055893	0.062009
6415.038611	0.732740	107.128906	166.503906
6415.040611	0.828193	107.128906	166.503906
6415.042611	0.825596	9.081558	0.037744
6416.140669	0.800979	-126.269531	-173.828125
6416.142672	0.826144	-126.269531	-173.828125
6416.144672	0.826069	9.086761	0.058447
6417.113147	0.490453	76.660156	166.308594
6417.115149	0.773556	76.660156	166.308594
6417.117149	0.826638	76.660156	166.308594
6417.119150	0.823994	9.063931	0.038027
6418.217215	0.819783	-132.519531	-173.242187
6418.219218	0.825960	-132.519531	-173.242187
6418.221216	0.823825	9.062078	0.317587
6419.191253	0.768085	111.914062	163.574219
6419.193252	0.826696	111.914062	163.574219
6419.195254	0.823983	9.063816	0.037658
6420.289815	0.277881	-132.812500	-170.898437
6420.291817	0.597145	-132.812500	-170.898437
6420.295819	0.825632	-132.812500	-170.898437
6420.297821	0.823300	-132.812500	-170.898437
6420.299819	0.821958	9.041536	0.062732
6421.266416	0.558701	54.882812	163.671875
6421.268416	0.805751	54.882812	163.671875
6421.270417	0.825920	54.882812	163.671875
6421.272416	0.823408	9.057488	0.038918
6422.369059	0.527059	-130.078125	-168.359375
6422.371062	0.792749	-130.078125	-168.359375
6422.373061	0.826533	-130.078125	-168.359375
6422.375061	0.824162	9.065784	0.061349
6423.343020	0.548843	65.136719	162.500000
6423.345025	0.560331	65.136719	162.500000
6423.347029	0.826163	65.136719	162.500000
6423.349036	0.823767	9.061440	0.040951
6424.445571	0.501968	-130.566406	-166.894531
6424.447572	0.780068	-130.566406	-166.894531
6424.449572	0.826603	-130.566406	-166.894531
6424.453569	0.822394	9.046339	0.061262
6425.421617	0.449366	89.746094	160.156250
6425.423626	0.747364	89.746094	160.156250
6425.425625	0.827353	89.746094	160.156250
6425.427625	0.824687	9.071562	0.038490
6426.521649	0.409014	-133.984375	-166.308594
6426.523652	0.716953	-133.984375	-166.308594
6426.525650	0.828098	-133.984375	-166.308594
6426.527648	0.825650	9.082151	0.060025
6427.498656	0.343451	99.511719	159.375000
6427.500657	0.659024	99.511719	159.375000
6427.502658	0.825937	99.511719	159.375000
6427.504659	0.825218	9.077393	0.038418
6428.598748	0.555816	-133.593750	-166.210937
6428.600751	0.804211	-133.593750	-166.210937
6428.602752	0.825319	-133.593750	-166.210937
6428.604750	0.822846	9.051311	0.059738
6429.577321	0.497975	96.386719	158.691406
6429.579324	0.777663	96.386719	158.691406
6429.581323	0.826295	96.386719	158.691406
6429.583323	0.823750	9.061255	0.038226
6430.673361	0.473729	-131.835937	-165.625000
6430.675363	0.763279	-131.835937	-165.625000
6430.677362	0.826563	-131.835937	-165.625000
6430.679363	0.823794	9.061733	0.057508
6431.653361	0.313385	102.148437	158.300781
6431.655379	0.630596	102.148437	158.300781
6431.657383	0.824165	102.148437	158.300781
6431.659384	0.826149	102.148437	158.300781
6431.661383	0.824132	9.065455	0.041402
6432.749347	0.362560	-132.226562	-165.039062
6432.753347	0.827199	-132.226562	-165.039062
6432.755350	0.825686	-132.226562	-165.039062
6432.757349	0.823650	9.060155	0.059805
6433.733928	0.365750	74.316406	158.593750
6433.735930	0.679574	74.316406	158.593750
6433.737931	0.826880	74.316406	158.593750
6433.739929	0.825304	9.078341	0.038179
6434.827933	0.784791	-130.566406	-164.941406
6434.829935	0.826380	-130.566406	-164.941406
6434.831938	0.823920	9.063115	0.057935
6435.812009	0.505984	89.843750	158.398437
6435.814012	0.781911	89.843750	158.398437
6435.816010	0.826043	89.843750	158.398437
6435.818012	0.823422	9.057639	0.038252
6436.902097	0.590401	-127.832031	-164.453125
6436.904100	0.815718	-127.832031	-164.453125
6436.906100	0.826135	-127.832031	-164.453125
6436.908098	0.823851	9.062363	0.234237
6437.890152	0.495387	83.300781	158.203125
6437.892154	0.506060	83.300781	158.203125
6437.894156	0.826156	83.300781	158.203125
6437.896154	0.823449	9.057940	0.039091
6438.976194	0.346884	-127.734375	-165.136719
6438.978196	0.662284	-127.734375	-165.136719
6438.980195	0.826635	-127.734375	-165.136719
6438.982197	0.825916	9.085076	0.058526
6439.968250	0.557798	70.214844	158.300781
6439.970252	0.805524	70.214844	158.300781
6439.972252	0.826206	70.214844	158.300781
6439.974251	0.823829	9.062115	0.055604
6441.054274	0.570172	-132.128906	-165.820312
6441.056277	0.809910	-132.128906	-165.820312
6441.058276	0.826341	-132.128906	-165.820312
6441.060276	0.823954	9.063497	0.060628
6442.046352	0.759412	44.921875	159.179687
6442.048353	0.826946	44.921875	159.179687
6442.050353	0.824268	9.066953	0.038789
6443.130966	0.492750	-129.199219	-165.820312
6443.132967	0.774778	-129.199219	-165.820312
6443.134965	0.826528	-129.199219	-165.820312
6443.136966	0.823906	9.062964	0.057770
6444.120974	0.381252	77.636719	158.691406
6444.122974	0.693408	77.636719	158.691406
6444.124975	0.828430	77.636719	158.691406
6444.126976	0.826393	9.090323	0.039868
6445.206946	0.299861	-128.515625	-165.136719
6445.208946	0.617852	-128.515625	-165.136719
6445.210947	0.821403	-128.515625	-165.136719
6445.212947	0.825688	-128.515625	-165.136719
6445.214954	0.823439	9.057825	0.058751
