time (s)	coil I (A)	last det (V)	int current (uC)
628.072789	0.866038	-342.089844	200.097656
628.074793	1.161676	-342.089844	200.097656
628.076792	1.436740	-342.089844	200.097656
628.078791	1.543394	-342.089844	200.097656
628.082789	1.536521	16.901726	1.060180
629.120837	0.484967	-213.183594	-144.140625
629.122840	0.797460	-213.183594	-144.140625
629.124839	1.097834	-213.183594	-144.140625
629.126841	1.113656	-213.183594	-144.140625
629.130837	1.540244	-213.183594	-144.140625
629.132839	1.537171	16.908878	1.019096
630.151780	0.548032	-358.398437	196.289062
630.153782	0.859161	-358.398437	196.289062
630.155781	1.155149	-358.398437	196.289062
630.157784	1.431203	-358.398437	196.289062
630.159782	1.544002	-358.398437	196.289062
630.161782	1.539852	16.938372	1.016342
631.199822	0.576122	-194.726562	-153.808594
631.201824	0.886391	-194.726562	-153.808594
631.203823	1.180569	-194.726562	-153.808594
631.205825	1.452474	-194.726562	-153.808594
631.207823	1.544247	-194.726562	-153.808594
631.209824	1.539852	16.938372	1.044477
632.231820	0.514868	-342.773437	199.023437
632.233823	0.826703	-342.773437	199.023437
632.235824	1.125214	-342.773437	199.023437
632.237823	1.403776	-342.773437	199.023437
632.239823	1.543911	-342.773437	199.023437
632.241823	1.540479	16.945267	1.012362
633.277902	0.415264	-203.222656	-149.707031
633.279904	0.729889	-203.222656	-149.707031
633.281906	1.033289	-203.222656	-149.707031
633.283905	1.317771	-203.222656	-149.707031
633.285906	1.529256	-203.222656	-149.707031
633.287907	1.540683	-203.222656	-149.707031
633.289906	1.537398	16.911377	1.007487
634.311888	0.363811	-343.554687	198.242187
634.315890	0.986478	-343.554687	198.242187
634.317898	1.273558	-343.554687	198.242187
634.319904	1.512319	-343.554687	198.242187
634.321904	1.541104	-343.554687	198.242187
634.323901	1.537421	16.911634	1.041416
635.355939	0.356471	-200.000000	-151.562500
635.357939	0.673424	-200.000000	-151.562500
635.359942	0.979901	-200.000000	-151.562500
635.361942	1.267486	-200.000000	-151.562500
635.363944	1.508700	-200.000000	-151.562500
635.365942	1.541114	-200.000000	-151.562500
635.367942	1.537325	16.910572	0.996209
636.389906	0.374599	-335.351562	200.097656
636.391911	0.690799	-335.351562	200.097656
636.393912	0.996760	-335.351562	200.097656
636.395913	1.283217	-335.351562	200.097656
636.397912	1.289977	-335.351562	200.097656
636.399915	1.540944	-335.351562	200.097656
636.401915	1.540765	16.948414	1.033238
637.441906	1.116959	-201.074219	-151.171875
637.443907	1.395818	-201.074219	-151.171875
637.445908	1.542831	-201.074219	-151.171875
637.449906	1.537003	16.907034	0.963026
638.468507	0.447958	-326.660156	200.000000
638.470508	0.761458	-326.660156	200.000000
638.472508	1.063311	-326.660156	200.000000
638.474508	1.344958	-326.660156	200.000000
638.476507	1.536216	-326.660156	200.000000
638.478508	1.540050	-326.660156	200.000000
638.480507	1.536917	16.906086	1.008759
639.520568	0.967814	-183.203125	-159.375000
639.522571	1.256192	-183.203125	-159.375000
639.524571	1.503005	-183.203125	-159.375000
639.526572	1.541685	-183.203125	-159.375000
639.528576	1.537814	16.915960	0.990703
640.550600	0.652384	-351.367187	197.851562
640.552604	1.240983	-351.367187	197.851562
640.554604	1.493986	-351.367187	197.851562
640.556610	1.541061	-351.367187	197.851562
640.558612	1.537138	16.908516	0.985345
641.598644	0.531176	-188.183594	-158.496094
641.600646	0.842459	-188.183594	-158.496094
641.602645	1.139474	-188.183594	-158.496094
641.604646	1.417116	-188.183594	-158.496094
641.606645	1.544090	-188.183594	-158.496094
641.608646	1.540186	16.942041	0.959975
642.626680	0.683885	-343.164062	199.218750
642.628681	0.989141	-343.164062	199.218750
642.630681	1.276041	-343.164062	199.218750
642.632682	1.512463	-343.164062	199.218750
642.634682	1.540476	-343.164062	199.218750
642.636682	1.536902	16.905918	0.989927
643.676747	0.464893	-183.300781	-162.011719
643.678748	0.777687	-183.300781	-162.011719
643.680748	1.078933	-183.300781	-162.011719
643.682748	1.359499	-183.300781	-162.011719
643.684747	1.538573	-183.300781	-162.011719
643.686749	1.539425	-183.300781	-162.011719
643.688748	1.536464	16.901106	0.945574
644.702789	0.361455	-319.531250	205.468750
644.706789	0.983627	-319.531250	205.468750
644.708792	1.270841	-319.531250	205.468750
644.710791	1.509878	-319.531250	205.468750
644.712791	1.540262	-319.531250	205.468750
644.714790	1.536733	16.904066	0.992690
645.758864	0.864651	-173.730469	-169.628906
645.760864	1.160072	-173.730469	-169.628906
645.762864	1.435166	-173.730469	-169.628906
645.764866	1.542478	-173.730469	-169.628906
645.766865	1.538186	16.920046	0.919920
646.786908	1.040206	-319.531250	210.253906
646.790909	1.530712	-319.531250	210.253906
646.792912	1.540299	-319.531250	210.253906
646.794912	1.536994	16.906929	0.938744
647.833414	0.341193	-179.101562	-171.386719
647.835413	0.658883	-179.101562	-171.386719
647.837416	0.965307	-179.101562	-171.386719
647.839415	1.253825	-179.101562	-171.386719
647.841415	1.501295	-179.101562	-171.386719
647.843419	1.540953	-179.101562	-171.386719
647.845417	1.537036	16.907398	0.946888
648.863461	0.449734	-280.957031	217.382812
648.867461	1.064903	-280.957031	217.382812
648.869462	1.346271	-280.957031	217.382812
648.871464	1.535730	-280.957031	217.382812
648.873467	1.538880	-280.957031	217.382812
648.875469	1.535953	16.895477	0.928732
649.909444	0.414277	-188.476562	-172.070312
649.911450	0.728585	-188.476562	-172.070312
649.913455	1.032955	-188.476562	-172.070312
649.917452	1.528496	-188.476562	-172.070312
649.919455	1.540060	-188.476562	-172.070312
649.921454	1.536799	16.904793	0.930741
650.945499	0.547805	-281.250000	216.699219
650.947501	0.858533	-281.250000	216.699219
650.949501	1.154369	-281.250000	216.699219
650.951497	1.430305	-281.250000	216.699219
650.953498	1.543229	-281.250000	216.699219
650.955499	1.539005	16.929058	0.895757
651.985565	0.468591	-176.074219	-177.929687
651.987566	0.781086	-176.074219	-177.929687
651.989566	1.082030	-176.074219	-177.929687
651.991565	1.362396	-176.074219	-177.929687
651.993566	1.539026	-176.074219	-177.929687
651.995566	1.539371	-176.074219	-177.929687
651.997566	1.536397	16.900372	0.911547
653.027643	0.564297	-277.636719	211.523437
653.029647	0.874722	-277.636719	211.523437
653.031645	1.169451	-277.636719	211.523437
653.033645	1.443248	-277.636719	211.523437
653.035647	1.543105	-277.636719	211.523437
653.037647	1.538787	16.926655	0.881004
654.063619	0.784753	-177.441406	-173.046875
654.065623	1.085459	-177.441406	-173.046875
654.069627	1.370432	-177.441406	-173.046875
654.071630	1.540198	-177.441406	-173.046875
654.073629	1.537119	16.908310	0.935171
655.107674	0.528806	-285.839844	206.250000
655.109675	0.839976	-285.839844	206.250000
655.113674	1.414632	-285.839844	206.250000
655.115676	1.542094	-285.839844	206.250000
655.117677	1.538255	16.920807	0.847436
656.139719	0.543272	-168.554687	-171.289062
656.141720	0.854091	-168.554687	-171.289062
656.143720	1.150187	-168.554687	-171.289062
656.145719	1.426700	-168.554687	-171.289062
656.147719	1.543107	-168.554687	-171.289062
656.149720	1.538887	16.927755	0.893172
657.185746	0.464249	-316.308594	201.757812
657.187746	0.776922	-316.308594	201.757812
657.189747	1.078034	-316.308594	201.757812
657.191745	1.358586	-316.308594	201.757812
657.193745	1.538206	-316.308594	201.757812
657.195746	1.539096	-316.308594	201.757812
657.197746	1.536085	16.896940	0.876400
658.222701	0.884913	-178.906250	-163.964844
658.224704	1.178883	-178.906250	-163.964844
658.228702	1.544878	-178.906250	-163.964844
658.230704	1.540600	-178.906250	-163.964844
658.232703	1.537935	16.917280	0.897632
659.261279	0.618515	-320.996094	199.511719
659.263280	0.926550	-320.996094	199.511719
659.265279	1.217672	-320.996094	199.511719
659.267280	1.479302	-320.996094	199.511719
659.269280	1.541661	-320.996094	199.511719
659.271279	1.537464	16.912104	0.870500
660.303271	0.758286	-164.648437	-166.601562
660.305272	1.060236	-164.648437	-166.601562
660.307270	1.342052	-164.648437	-166.601562
660.309271	1.535138	-164.648437	-166.601562
660.311270	1.539473	-164.648437	-166.601562
660.313271	1.536381	16.900194	0.847225
661.335267	0.477885	-260.644531	204.199219
661.337271	0.790263	-260.644531	204.199219
661.339271	1.090691	-260.644531	204.199219
661.343278	1.539530	-260.644531	204.199219
661.345277	1.538519	-260.644531	204.199219
661.347278	1.535698	16.892679	0.825023
662.383252	0.646247	-181.445312	-160.351562
662.385254	0.953023	-181.445312	-160.351562
662.387255	1.242257	-181.445312	-160.351562
662.389254	1.494331	-181.445312	-160.351562
662.391256	1.540082	-181.445312	-160.351562
662.393254	1.536246	16.898705	1.059049
663.413284	0.777683	-284.960937	203.906250
663.415287	1.078643	-284.960937	203.906250
663.417287	1.359096	-284.960937	203.906250
663.419287	1.537636	-284.960937	203.906250
663.423285	1.535472	-284.960937	203.906250
663.425287	1.533654	16.870195	0.866956
664.461279	0.618522	-178.710937	-162.792969
664.463281	0.631444	-178.710937	-162.792969
664.465279	1.217656	-178.710937	-162.792969
664.467279	1.479057	-178.710937	-162.792969
664.469280	1.541046	-178.710937	-162.792969
664.471281	1.536986	16.906849	0.832021
665.489793	0.368916	-227.050781	209.277344
665.491796	0.685089	-227.050781	209.277344
665.497793	1.512459	-227.050781	209.277344
665.499796	1.539682	-227.050781	209.277344
665.501794	1.536205	16.898252	0.859667
666.537814	0.246060	-174.316406	-167.187500
666.539816	0.569047	-174.316406	-167.187500
666.541814	0.879346	-174.316406	-167.187500
666.543815	1.173596	-174.316406	-167.187500
666.545814	1.446559	-174.316406	-167.187500
666.547817	1.542843	-174.316406	-167.187500
666.549816	1.538497	16.923466	0.832581
667.566408	0.241810	-227.050781	212.597656
667.568410	0.565007	-227.050781	212.597656
667.570412	0.875260	-227.050781	212.597656
667.572411	1.169815	-227.050781	212.597656
667.576409	1.542517	-227.050781	212.597656
667.578415	1.538180	-227.050781	212.597656
667.580412	1.535749	16.893236	0.816457
668.616456	0.360239	-171.582031	-172.265625
668.618458	0.676819	-171.582031	-172.265625
668.620460	0.982233	-171.582031	-172.265625
668.622458	1.269410	-171.582031	-172.265625
668.624460	1.508696	-171.582031	-172.265625
668.626458	1.539336	-171.582031	-172.265625
668.628458	1.535815	16.893963	0.813047
669.647039	0.570562	-255.566406	215.234375
669.649041	0.880585	-255.566406	215.234375
669.651042	1.174818	-255.566406	215.234375
669.653041	1.447520	-255.566406	215.234375
669.655043	1.451804	-255.566406	215.234375
669.657040	1.538574	16.924316	0.806994
670.693046	0.283679	-173.828125	-174.609375
670.695049	0.604234	-173.828125	-174.609375
670.697048	0.912787	-173.828125	-174.609375
670.699049	1.204786	-173.828125	-174.609375
670.701047	1.470198	-173.828125	-174.609375
670.703049	1.541139	-173.828125	-174.609375
670.705048	1.536933	16.906263	0.862438
671.727007	0.826227	-245.410156	217.187500
671.729009	1.124196	-245.410156	217.187500
671.731010	1.402564	-245.410156	217.187500
671.733011	1.542399	-245.410156	217.187500
671.735010	1.538905	16.927959	0.772433
672.776983	1.345082	-153.125000	-183.984375
672.778986	1.535390	-153.125000	-183.984375
672.780985	1.538889	-153.125000	-183.984375
672.782985	1.535967	16.895638	0.788100
673.804980	0.559157	-207.519531	217.578125
673.806988	0.869496	-207.519531	217.578125
673.808983	1.164772	-207.519531	217.578125
673.810983	1.439121	-207.519531	217.578125
673.812984	1.542640	-207.519531	217.578125
673.814984	1.542542	16.967962	0.748573
674.853025	0.637577	-148.535156	-185.253906
674.855026	0.944740	-148.535156	-185.253906
674.857027	1.234453	-148.535156	-185.253906
674.859025	1.489679	-148.535156	-185.253906
674.861027	1.540211	-148.535156	-185.253906
674.863027	1.536283	16.899113	0.723523
675.881035	0.371982	-278.222656	215.332031
675.883038	0.687761	-278.222656	215.332031
675.885037	0.992688	-278.222656	215.332031
675.887039	1.279189	-278.222656	215.332031
675.889038	1.513262	-278.222656	215.332031
675.891038	1.539137	-278.222656	215.332031
675.893037	1.535758	16.893343	0.771006
676.929042	0.715978	-151.367187	-185.253906
676.931042	1.019719	-151.367187	-185.253906
676.933044	1.304207	-151.367187	-185.253906
676.935044	1.523490	-151.367187	-185.253906
676.939042	1.535879	-151.367187	-185.253906
676.941043	1.533963	16.873589	0.779034
677.961044	0.605446	-217.968750	217.187500
677.963047	0.913923	-217.968750	217.187500
677.965047	1.205758	-217.968750	217.187500
677.967046	1.470616	-217.968750	217.187500
677.969047	1.540498	-217.968750	217.187500
677.971049	1.536330	16.899626	0.849976
679.009044	0.921990	-148.437500	-185.742187
679.011047	1.213328	-148.437500	-185.742187
679.013046	1.475955	-148.437500	-185.742187
679.015047	1.540578	-148.437500	-185.742187
679.017045	1.536583	16.902418	0.883756
680.039044	0.802786	-200.781250	217.578125
680.041045	1.102369	-200.781250	217.578125
680.043045	1.381464	-200.781250	217.578125
680.045045	1.543444	-200.781250	217.578125
680.047045	1.541627	16.957897	0.721475
681.085140	0.646827	-162.597656	-181.640625
681.087140	0.953511	-162.597656	-181.640625
681.089141	1.242646	-162.597656	-181.640625
681.091142	1.494593	-162.597656	-181.640625
681.093142	1.540171	-162.597656	-181.640625
681.095142	1.536299	16.899288	0.745235
682.113730	0.316102	-220.214844	216.699219
682.115732	0.328311	-220.214844	216.699219
682.119731	1.231727	-220.214844	216.699219
682.121732	1.487713	-220.214844	216.699219
682.123731	1.539654	-220.214844	216.699219
682.125732	1.535790	16.893688	0.721512
683.165744	0.697428	-147.460937	-184.179687
683.167744	1.171142	-147.460937	-184.179687
683.169746	1.444453	-147.460937	-184.179687
683.171745	1.542880	-147.460937	-184.179687
683.173744	1.538478	16.923262	0.736319
684.193774	0.819485	-170.898437	214.257812
684.195776	1.117902	-170.898437	214.257812
684.197776	1.396550	-170.898437	214.257812
684.199777	1.540397	-170.898437	214.257812
684.201777	1.537197	16.909163	0.679480
685.241821	0.364666	-150.097656	-180.957031
685.245822	0.986004	-150.097656	-180.957031
685.247823	1.272948	-150.097656	-180.957031
685.249824	1.510233	-150.097656	-180.957031
685.251828	1.539212	-150.097656	-180.957031
685.253831	1.535655	16.892208	0.699955
686.267897	0.451359	-236.328125	210.937500
686.269900	0.764228	-236.328125	210.937500
686.271898	1.065590	-236.328125	210.937500
686.275898	1.535012	-236.328125	210.937500
686.277899	1.538116	-236.328125	210.937500
686.279900	1.535152	16.886669	0.684238
687.320465	0.525373	-159.082031	-176.074219
687.322466	0.836369	-159.082031	-176.074219
687.324467	1.133549	-159.082031	-176.074219
687.326466	1.411453	-159.082031	-176.074219
687.328467	1.545128	-159.082031	-176.074219
687.330466	1.541471	16.956184	0.700193
688.348469	1.022861	-172.949219	208.105469
688.350469	1.307092	-172.949219	208.105469
688.352469	1.524392	-172.949219	208.105469
688.354469	1.539048	-172.949219	208.105469
688.356471	1.535755	16.893307	0.708235
689.396473	0.316467	-152.148437	-174.218750
689.398475	0.634998	-152.148437	-174.218750
689.400476	0.942181	-152.148437	-174.218750
689.402474	1.232013	-152.148437	-174.218750
689.404476	1.487984	-152.148437	-174.218750
689.406475	1.539745	-152.148437	-174.218750
689.408484	1.535917	16.895088	0.750117
690.426539	0.769326	-165.039062	204.882812
690.428542	1.070542	-165.039062	204.882812
690.430541	1.351429	-165.039062	204.882812
690.432543	1.536142	-165.039062	204.882812
690.434545	1.538173	-165.039062	204.882812
690.438542	1.533348	16.866827	0.663442
691.474574	0.474706	-165.917969	-168.847656
691.476576	0.786878	-165.917969	-168.847656
691.478577	1.087265	-165.917969	-168.847656
691.480595	1.367047	-165.917969	-168.847656
691.482599	1.539348	-165.917969	-168.847656
691.484600	1.538414	-165.917969	-168.847656
691.488597	1.533809	16.871895	0.679877
692.503531	0.458296	-192.968750	202.148437
692.505534	0.770790	-192.968750	202.148437
692.507534	1.071965	-192.968750	202.148437
692.509533	1.352724	-192.968750	202.148437
692.511533	1.536562	-192.968750	202.148437
692.513533	1.538395	-192.968750	202.148437
692.515533	1.535565	16.891216	0.661760
693.551554	0.653903	-164.550781	-169.531250
693.553555	0.960157	-164.550781	-169.531250
693.555558	1.248657	-164.550781	-169.531250
693.557557	1.256875	-164.550781	-169.531250
693.559555	1.539302	-164.550781	-169.531250
693.561556	1.535634	16.891970	0.715155
694.586088	0.884736	-225.292969	200.585937
694.588091	1.178518	-225.292969	200.585937
694.592088	1.542585	-225.292969	200.585937
694.594091	1.538213	-225.292969	200.585937
694.596088	1.535833	16.894167	0.703060
695.626614	0.348235	-165.332031	-169.921875
695.628615	0.881172	-165.332031	-169.921875
695.630616	1.175276	-165.332031	-169.921875
695.632615	1.447512	-165.332031	-169.921875
695.634615	1.541348	-165.332031	-169.921875
695.636615	1.537057	16.907629	0.684051
696.665129	0.786933	-228.906250	200.390625
696.667129	1.087304	-228.906250	200.390625
696.669131	1.366991	-228.906250	200.390625
696.671130	1.541325	-228.906250	200.390625
696.673131	1.541326	-228.906250	200.390625
696.675131	1.538205	16.920258	0.635114
697.701636	0.443050	-159.472656	-172.656250
697.703638	0.756125	-159.472656	-172.656250
697.705638	1.057998	-159.472656	-172.656250
697.707637	1.339678	-159.472656	-172.656250
697.709638	1.533447	-159.472656	-172.656250
697.711638	1.537980	-159.472656	-172.656250
697.713637	1.535061	16.885668	0.661425
698.742210	0.422709	-250.195312	201.367187
698.744212	0.736423	-250.195312	201.367187
698.746212	1.039113	-250.195312	201.367187
698.748212	1.322221	-250.195312	201.367187
698.750212	1.529189	-250.195312	201.367187
698.752211	1.538689	-250.195312	201.367187
698.754212	1.535543	16.890976	0.658981
699.777169	0.342012	-156.347656	-176.660156
699.779171	0.659248	-156.347656	-176.660156
699.781171	0.965202	-156.347656	-176.660156
699.783169	1.253548	-156.347656	-176.660156
699.785171	1.500326	-156.347656	-176.660156
699.789168	1.539061	-156.347656	-176.660156
699.791170	1.533416	16.867571	0.665454
700.823153	0.856977	-228.613281	204.687500
700.825154	1.152738	-228.613281	204.687500
700.827154	1.163257	-228.613281	204.687500
700.829154	1.541062	-228.613281	204.687500
700.833152	1.534369	16.878063	0.604765
701.855733	0.369151	-148.535156	-183.300781
701.857735	0.684980	-148.535156	-183.300781
701.859735	0.989913	-148.535156	-183.300781
701.861735	1.276401	-148.535156	-183.300781
701.863735	1.511681	-148.535156	-183.300781
701.865735	1.538707	-148.535156	-183.300781
701.867742	1.535310	16.888407	0.653229
702.897766	0.537803	-213.476562	209.082031
702.899769	0.848465	-213.476562	209.082031
702.901771	1.144743	-213.476562	209.082031
702.903771	1.421645	-213.476562	209.082031
702.905777	1.541069	-213.476562	209.082031
702.907775	1.536981	16.906796	0.624205
703.936316	0.712176	-158.398437	-185.351562
703.938318	1.015729	-158.398437	-185.351562
703.940317	1.300393	-158.398437	-185.351562
703.942318	1.521366	-158.398437	-185.351562
703.944318	1.538006	-158.398437	-185.351562
703.946318	1.534871	16.883577	0.651628
704.975253	0.806205	-200.488281	212.402344
704.979254	1.384323	-200.488281	212.402344
704.981254	1.540621	-200.488281	212.402344
704.983256	1.538278	16.921055	0.586670
706.015869	0.898771	-140.136719	-190.136719
706.017871	1.191480	-140.136719	-190.136719
706.019871	1.460356	-140.136719	-190.136719
706.021870	1.541895	-140.136719	-190.136719
706.023870	1.537583	16.913408	0.717659
707.051895	0.680793	-169.531250	214.355469
707.053897	0.985833	-169.531250	214.355469
707.055897	1.272521	-169.531250	214.355469
707.057895	1.509800	-169.531250	214.355469
707.059896	1.538375	-169.531250	214.355469
707.061897	1.538242	16.920666	0.594281
708.093925	0.718156	-150.390625	-189.062500
708.097926	1.305920	-150.390625	-189.062500
708.099928	1.523516	-150.390625	-189.062500
708.101928	1.538155	-150.390625	-189.062500
708.103927	1.534975	16.884727	0.618607
709.126480	0.464953	-192.675781	214.550781
709.128483	0.777217	-192.675781	214.550781
709.130482	1.077986	-192.675781	214.550781
709.132483	1.358574	-192.675781	214.550781
709.134483	1.537932	-192.675781	214.550781
709.136483	1.538748	-192.675781	214.550781
709.140481	1.533993	16.873926	0.587478
710.172547	0.642921	-147.070312	-188.769531
710.174550	0.949578	-147.070312	-188.769531
710.176549	1.238771	-147.070312	-188.769531
710.178549	1.491570	-147.070312	-188.769531
710.180549	1.538871	-147.070312	-188.769531
710.182550	1.535102	16.886120	0.620844
711.202579	0.495313	-146.777344	212.890625
711.204583	0.806786	-146.777344	212.890625
711.206584	1.105885	-146.777344	212.890625
711.208586	1.384800	-146.777344	212.890625
711.210586	1.540267	-146.777344	212.890625
711.214588	1.535141	16.886545	0.575395
712.250630	0.523125	-155.859375	-184.960937
712.252633	0.834015	-155.859375	-184.960937
712.254634	1.131344	-155.859375	-184.960937
712.256634	1.409089	-155.859375	-184.960937
712.258633	1.541297	-155.859375	-184.960937
712.260634	1.537544	16.912981	0.588886
713.278610	0.320525	-170.996094	211.035156
713.280613	0.638639	-170.996094	211.035156
713.282613	0.945735	-170.996094	211.035156
713.284620	1.235346	-170.996094	211.035156
713.286624	1.490398	-170.996094	211.035156
713.288623	1.538877	-170.996094	211.035156
713.292623	1.532784	16.860624	0.585101
714.330654	0.874514	-137.500000	-185.937500
714.332656	1.169009	-137.500000	-185.937500
714.334657	1.442175	-137.500000	-185.937500
714.336656	1.540825	-137.500000	-185.937500
714.338657	1.536475	16.901222	0.612567
715.356673	0.919206	-123.632812	209.082031
715.360676	1.104578	-123.632812	209.082031
715.362677	1.383552	-123.632812	209.082031
715.364678	1.540428	-123.632812	209.082031
715.366678	1.538059	16.918653	0.597742
716.404702	0.334097	-139.160156	-185.449219
716.406703	0.651494	-139.160156	-185.449219
716.408706	0.957754	-139.160156	-185.449219
716.410704	1.246466	-139.160156	-185.449219
716.412704	1.496175	-139.160156	-185.449219
716.414704	1.538725	-139.160156	-185.449219
716.416704	1.535018	16.885199	0.602375
717.434699	0.494339	-128.515625	208.398437
717.436701	0.805783	-128.515625	208.398437
717.438701	1.104971	-128.515625	208.398437
717.440701	1.383921	-128.515625	208.398437
717.442700	1.539753	-128.515625	208.398437
717.444700	1.537336	16.910694	0.549843
718.486720	0.996613	-143.066406	-187.011719
718.488721	1.282636	-143.066406	-187.011719
718.490726	1.514161	-143.066406	-187.011719
718.492724	1.538028	-143.066406	-187.011719
718.494723	1.534778	16.882559	0.596137
719.510732	0.361393	-128.808594	208.007812
719.512733	0.677376	-128.808594	208.007812
719.514733	0.982523	-128.808594	208.007812
719.516734	1.269465	-128.808594	208.007812
719.518732	1.508025	-128.808594	208.007812
719.520733	1.537945	-128.808594	208.007812
719.522733	1.534566	16.880226	0.560641
720.562773	0.717620	-153.027344	-184.863281
720.564776	1.020970	-153.027344	-184.863281
720.566775	1.305242	-153.027344	-184.863281
720.568776	1.522990	-153.027344	-184.863281
720.570774	1.537660	-153.027344	-184.863281
720.572775	1.534423	16.878658	0.579836
721.589362	0.490014	-153.808594	208.984375
721.591364	0.801538	-153.808594	208.984375
721.593363	1.100896	-153.808594	208.984375
721.595363	1.379908	-153.808594	208.984375
721.597364	1.538440	-153.808594	208.984375
721.599363	1.536340	16.899742	0.536569
722.637350	0.354628	-155.761719	-185.742187
722.639351	0.671053	-155.761719	-185.742187
722.641358	0.976353	-155.761719	-185.742187
722.643359	1.265137	-155.761719	-185.742187
722.645360	1.506122	-155.761719	-185.742187
722.647360	1.538467	-155.761719	-185.742187
722.649360	1.535088	16.885969	0.581598
723.667413	0.533401	-128.515625	209.472656
723.669416	0.843948	-128.515625	209.472656
723.673414	1.417417	-128.515625	209.472656
723.675416	1.540082	-128.515625	209.472656
723.677422	1.536174	16.897917	0.533027
724.713458	0.261036	-152.734375	-187.792969
724.715459	0.582523	-152.734375	-187.792969
724.717459	0.891715	-152.734375	-187.792969
724.719460	1.184954	-152.734375	-187.792969
724.721461	1.455258	-152.734375	-187.792969
724.723459	1.541412	-152.734375	-187.792969
724.725460	1.537051	16.907558	0.619126
725.745483	0.482090	-153.125000	212.011719
725.747484	0.793709	-153.125000	212.011719
725.749485	1.093541	-153.125000	212.011719
725.751487	1.372756	-153.125000	212.011719
725.753492	1.539063	-153.125000	212.011719
725.755490	1.537645	16.914089	0.525903
726.791463	0.516419	-149.511719	-190.820312
726.793462	0.827311	-149.511719	-190.820312
726.795463	1.124945	-149.511719	-190.820312
726.797464	1.137030	-149.511719	-190.820312
726.799465	1.540675	-149.511719	-190.820312
726.801465	1.537130	16.908436	0.585547
727.823989	0.450480	-172.363281	212.500000
727.825992	0.763112	-172.363281	212.500000
727.827991	1.064373	-172.363281	212.500000
727.829993	1.345573	-172.363281	212.500000
727.831993	1.533681	-172.363281	212.500000
727.833993	1.536662	-172.363281	212.500000
727.835993	1.533719	16.870913	0.526577
728.868008	0.609358	-146.484375	-192.871094
728.870011	0.917337	-146.484375	-192.871094
728.872010	1.208804	-146.484375	-192.871094
728.874010	1.472295	-146.484375	-192.871094
728.876013	1.539069	-146.484375	-192.871094
728.878014	1.534981	16.884790	0.571195
729.902571	0.479046	-183.593750	211.230469
729.904575	0.790941	-183.593750	211.230469
729.906573	1.090938	-183.593750	211.230469
729.908578	1.370358	-183.593750	211.230469
729.910581	1.538087	-183.593750	211.230469
729.912582	1.536859	16.905449	0.555426
730.945127	0.787608	-151.269531	-190.917969
730.947129	1.087866	-151.269531	-190.917969
730.949130	1.367387	-151.269531	-190.917969
730.951128	1.537109	-151.269531	-190.917969
730.953129	1.536317	-151.269531	-190.917969
730.955128	1.533465	16.868111	0.547239
731.982081	0.442575	-170.800781	208.398437
731.984082	0.755381	-170.800781	208.398437
731.986082	1.057000	-170.800781	208.398437
731.988082	1.338705	-170.800781	208.398437
731.990083	1.532443	-170.800781	208.398437
731.992083	1.536993	-170.800781	208.398437
731.994082	1.534026	16.874289	0.505523
733.018620	0.389329	-150.683594	-188.574219
733.020624	0.704063	-150.683594	-188.574219
733.022624	1.008188	-150.683594	-188.574219
733.026622	1.518321	-150.683594	-188.574219
733.028623	1.537544	-150.683594	-188.574219
733.030625	1.534393	16.878321	0.554538
734.063559	0.958790	-196.386719	204.394531
734.065563	1.247326	-196.386719	204.394531
734.067561	1.496461	-196.386719	204.394531
734.069562	1.538238	-196.386719	204.394531
734.071562	1.534613	16.880741	0.520740
735.094170	0.247161	-153.808594	-184.375000
735.096172	0.569390	-153.808594	-184.375000
735.098172	0.879118	-153.808594	-184.375000
735.100171	1.173199	-153.808594	-184.375000
735.102172	1.445866	-153.808594	-184.375000
735.104172	1.542379	-153.808594	-184.375000
735.106171	1.538001	16.918007	0.596377
736.138202	0.457114	-110.351562	199.511719
736.140204	0.769551	-110.351562	199.511719
736.142203	1.070501	-110.351562	199.511719
736.144203	1.351360	-110.351562	199.511719
736.146203	1.534972	-110.351562	199.511719
736.148203	1.536768	-110.351562	199.511719
736.150203	1.533880	16.872684	0.507643
737.172259	0.355968	-138.769531	-182.714844
737.174262	0.672170	-138.769531	-182.714844
737.176262	0.977444	-138.769531	-182.714844
737.178260	1.264649	-138.769531	-182.714844
737.180263	1.506509	-138.769531	-182.714844
737.182261	1.539954	-138.769531	-182.714844
737.184261	1.536297	16.899263	0.545501
738.216284	0.648733	-195.605469	198.046875
738.218285	0.954977	-195.605469	198.046875
738.224282	1.538520	-195.605469	198.046875
738.226286	1.534917	-195.605469	198.046875
738.228286	1.532690	16.859587	0.519873
739.250894	0.394671	-145.312500	-179.394531
739.252897	0.709228	-145.312500	-179.394531
739.254897	1.012831	-145.312500	-179.394531
739.256898	1.297577	-145.312500	-179.394531
739.258896	1.520004	-145.312500	-179.394531
739.260899	1.537444	-145.312500	-179.394531
739.262897	1.534291	16.877205	0.538221
740.290921	0.418734	-163.476562	196.582031
740.292923	0.732390	-163.476562	196.582031
740.294920	1.034957	-163.476562	196.582031
740.296921	1.318181	-163.476562	196.582031
740.298922	1.526927	-163.476562	196.582031
740.300921	1.537153	-163.476562	196.582031
740.302921	1.534062	16.874678	0.506620
741.330970	0.566715	-139.941406	-177.734375
741.332973	0.876528	-139.941406	-177.734375
741.334972	1.170705	-139.941406	-177.734375
741.336974	1.443435	-139.941406	-177.734375
741.338972	1.540410	-139.941406	-177.734375
741.340974	1.536144	16.897589	0.543016
742.367038	0.473374	-153.222656	196.191406
742.369041	0.785355	-153.222656	196.191406
742.371042	1.085538	-153.222656	196.191406
742.373043	1.130158	-153.222656	196.191406
742.375040	1.538618	-153.222656	196.191406
742.377043	1.538461	-153.222656	196.191406
742.379042	1.535613	16.891748	0.492797
743.409107	0.415173	-146.875000	-176.855469
743.411109	0.728890	-146.875000	-176.855469
743.413108	1.031604	-146.875000	-176.855469
743.415110	1.315058	-146.875000	-176.855469
743.417108	1.525609	-146.875000	-176.855469
743.419109	1.536730	-146.875000	-176.855469
743.421107	1.533561	16.869175	0.522588
744.443142	0.494790	-96.582031	195.507812
744.445144	0.806171	-96.582031	195.507812
744.447144	1.105212	-96.582031	195.507812
744.449143	1.384077	-96.582031	195.507812
744.451144	1.538630	-96.582031	195.507812
744.453143	1.536145	16.897598	0.519208
745.487196	0.280635	-152.832031	-176.074219
745.489198	0.600877	-152.832031	-176.074219
745.491196	0.909148	-152.832031	-176.074219
745.493198	1.201102	-152.832031	-176.074219
745.495198	1.466800	-152.832031	-176.074219
745.497199	1.539100	-152.832031	-176.074219
745.499198	1.535139	16.886528	0.529374
746.519772	0.588671	-165.527344	197.949219
746.521775	0.897436	-165.527344	197.949219
746.523774	1.190187	-165.527344	197.949219
746.525773	1.458884	-165.527344	197.949219
746.527775	1.539830	-165.527344	197.949219
746.529772	1.535606	16.891668	0.594363
747.566333	0.389353	-145.117187	-178.027344
747.568336	0.704080	-145.117187	-178.027344
747.570336	1.007879	-145.117187	-178.027344
747.572335	1.292968	-145.117187	-178.027344
747.574340	1.518256	-145.117187	-178.027344
747.576336	1.537578	-145.117187	-178.027344
747.578336	1.534341	16.877754	0.516790
748.596397	0.547495	-111.816406	198.535156
748.598399	0.857580	-111.816406	198.535156
748.600400	1.153035	-111.816406	198.535156
748.602400	1.428539	-111.816406	198.535156
748.604399	1.540965	-111.816406	198.535156
748.606402	1.536754	16.904297	0.473867
749.644470	0.429711	-152.050781	-178.613281
749.646471	0.742942	-152.050781	-178.613281
749.648478	1.044925	-152.050781	-178.613281
749.650485	1.063236	-152.050781	-178.613281
749.652486	1.529554	-152.050781	-178.613281
749.654487	1.536430	-152.050781	-178.613281
749.656487	1.533314	16.866455	0.538353
750.673419	0.522258	-109.570312	199.902344
750.675421	0.832962	-109.570312	199.902344
750.677422	1.130198	-109.570312	199.902344
750.679422	1.407835	-109.570312	199.902344
750.681422	1.540153	-109.570312	199.902344
750.683421	1.536493	16.901424	0.470641
751.723429	0.617306	-149.609375	-181.445312
751.725432	0.924877	-149.609375	-181.445312
751.727433	1.215653	-149.609375	-181.445312
751.729432	1.476798	-149.609375	-181.445312
751.731432	1.538577	-149.609375	-181.445312
751.733432	1.534676	16.881432	0.545584
752.750365	0.526053	-186.621094	201.953125
752.752368	0.836693	-186.621094	201.953125
752.754368	1.133579	-186.621094	201.953125
752.756368	1.410937	-186.621094	201.953125
752.758369	1.539884	-186.621094	201.953125
752.760367	1.536050	16.896551	0.467024
753.800400	0.524600	-136.328125	-184.179687
753.802401	0.835310	-136.328125	-184.179687
753.804403	1.132319	-136.328125	-184.179687
753.806404	1.409771	-136.328125	-184.179687
753.808402	1.539316	-136.328125	-184.179687
753.812400	1.533015	16.863167	0.490056
754.828519	0.659029	-156.250000	202.929687
754.830521	0.964725	-156.250000	202.929687
754.832521	1.252820	-156.250000	202.929687
754.834521	1.499163	-156.250000	202.929687
754.838519	1.533995	-156.250000	202.929687
754.840521	1.531867	16.850536	0.483316
755.876998	0.421821	-135.156250	-185.253906
755.879000	0.735188	-135.156250	-185.253906
755.880999	1.037667	-135.156250	-185.253906
755.883000	1.320698	-135.156250	-185.253906
755.884999	1.527361	-135.156250	-185.253906
755.887000	1.536774	-135.156250	-185.253906
755.888999	1.533669	16.870363	0.496148
756.904993	0.515912	-71.582031	201.171875
756.906995	0.826793	-71.582031	201.171875
756.908996	1.124358	-71.582031	201.171875
756.912994	1.539932	-71.582031	201.171875
756.914995	1.536377	-71.582031	201.171875
756.916996	1.533734	16.871073	0.490463
757.955031	0.575811	-146.484375	-184.570312
757.957032	0.885107	-146.484375	-184.570312
757.959033	1.178596	-146.484375	-184.570312
757.961033	1.449813	-146.484375	-184.570312
757.963032	1.539831	-146.484375	-184.570312
757.965034	1.535624	16.891863	0.512018
758.985577	0.913863	-84.277344	201.660156
758.987578	1.205416	-84.277344	201.660156
758.989579	1.469773	-84.277344	201.660156
758.991579	1.538553	-84.277344	201.660156
758.993578	1.534545	16.879995	0.503634
760.031663	0.558160	-131.835937	-185.253906
760.033665	0.868051	-131.835937	-185.253906
760.035667	1.162721	-131.835937	-185.253906
760.037666	1.436944	-131.835937	-185.253906
760.041663	1.536161	-131.835937	-185.253906
760.043665	1.533633	16.869965	0.516278
761.061731	0.717492	-176.269531	203.222656
761.063735	1.020519	-176.269531	203.222656
761.065733	1.304588	-176.269531	203.222656
761.067734	1.521936	-176.269531	203.222656
761.069734	1.536590	-176.269531	203.222656
761.071734	1.533420	16.867615	0.452647
762.108738	0.359540	-137.890625	-184.570312
762.112738	0.980325	-137.890625	-184.570312
762.114742	1.267345	-137.890625	-184.570312
762.116740	1.506523	-137.890625	-184.570312
762.118741	1.537246	-137.890625	-184.570312
762.120741	1.533886	16.872747	0.487211
763.140756	1.035069	-159.765625	201.855469
763.142758	1.318246	-159.765625	201.855469
763.144759	1.526484	-159.765625	201.855469
763.146758	1.536688	-159.765625	201.855469
763.148758	1.533593	16.869520	0.459869
764.187356	0.564424	-137.500000	-183.105469
764.189356	0.874133	-137.500000	-183.105469
764.191357	1.168435	-137.500000	-183.105469
764.193357	1.441608	-137.500000	-183.105469
764.195357	1.540157	-137.500000	-183.105469
764.197357	1.535893	16.894823	0.502385
765.213386	0.286954	-78.808594	198.828125
765.215389	0.606606	-78.808594	198.828125
765.219389	1.206060	-78.808594	198.828125
765.223386	1.538811	-78.808594	198.828125
765.227387	1.532403	-78.808594	198.828125
765.229388	1.530820	16.839018	0.496616
766.265379	0.448194	-144.335937	-180.859375
766.267380	1.001413	-144.335937	-180.859375
766.269380	1.286913	-144.335937	-180.859375
766.271379	1.296948	-144.335937	-180.859375
766.273379	1.537040	-144.335937	-180.859375
766.275379	1.536888	16.905767	0.478790
767.293922	0.766419	-58.691406	196.582031
767.295921	1.067453	-58.691406	196.582031
767.297923	1.348331	-58.691406	196.582031
767.299923	1.534411	-58.691406	196.582031
767.301921	1.536760	-58.691406	196.582031
767.303923	1.533900	16.872898	0.448583
768.341998	0.689296	-130.957031	-179.785156
768.344000	0.993695	-130.957031	-179.785156
768.346000	1.279626	-130.957031	-179.785156
768.347999	1.512468	-130.957031	-179.785156
768.350001	1.537379	-130.957031	-179.785156
768.352000	1.534102	16.875122	0.478228
769.370030	0.447616	-168.945312	197.265625
769.372033	0.760043	-168.945312	197.265625
769.374031	1.061333	-168.945312	197.265625
769.376032	1.342578	-168.945312	197.265625
769.378033	1.532443	-168.945312	197.265625
769.380032	1.535974	-168.945312	197.265625
769.382032	1.533033	16.863361	0.472653
770.417008	0.440312	-138.476562	-179.394531
770.419010	0.753162	-138.476562	-179.394531
770.421010	1.054751	-138.476562	-179.394531
770.425009	1.531319	-138.476562	-179.394531
770.431007	1.531425	-138.476562	-179.394531
770.433011	1.530119	16.831306	0.468913
771.451059	0.809825	-53.320312	192.773437
771.453061	1.108541	-53.320312	192.773437
771.455061	1.387119	-53.320312	192.773437
771.457060	1.539754	-53.320312	192.773437
771.459062	1.537285	16.910137	0.431161
772.493035	0.459448	-145.898437	-179.687500
772.495035	0.771553	-145.898437	-179.687500
772.497038	1.072550	-145.898437	-179.687500
772.499037	1.353084	-145.898437	-179.687500
772.501038	1.535841	-145.898437	-179.687500
772.503037	1.537549	-145.898437	-179.687500
772.505037	1.534643	16.881069	0.492551
773.527598	0.549844	-156.054687	193.554687
773.529599	0.859808	-156.054687	193.554687
773.531599	1.154986	-156.054687	193.554687
773.533601	1.169191	-156.054687	193.554687
773.535598	1.539788	-156.054687	193.554687
773.537598	1.535738	16.893112	0.462375
774.568158	0.447569	-149.511719	-179.882812
774.570160	0.760001	-149.511719	-179.882812
774.572160	1.061296	-149.511719	-179.882812
774.574159	1.342578	-149.511719	-179.882812
774.576159	1.532883	-149.511719	-179.882812
774.578159	1.536434	-149.511719	-179.882812
774.580160	1.533455	16.868006	0.494684
775.605123	0.350693	-166.503906	193.359375
775.607126	0.666856	-166.503906	193.359375
775.609128	0.972195	-166.503906	193.359375
775.611127	1.259617	-166.503906	193.359375
775.613125	1.502464	-166.503906	193.359375
775.615125	1.536942	-166.503906	193.359375
775.617128	1.533431	16.867741	0.425088
776.648093	0.785567	-141.503906	-181.640625
776.650093	1.085701	-141.503906	-181.640625
776.654111	1.536969	-141.503906	-181.640625
776.656115	1.536078	-141.503906	-181.640625
776.658114	1.533257	16.865826	0.458449
777.684738	0.603860	-170.800781	194.335937
777.686741	0.911808	-170.800781	194.335937
777.688741	1.203369	-170.800781	194.335937
777.690741	1.468090	-170.800781	194.335937
777.692740	1.538203	-170.800781	194.335937
777.694739	1.534103	16.875132	0.441020
778.723320	0.652552	-145.312500	-183.398437
778.725323	0.958367	-145.312500	-183.398437
778.727322	1.246762	-145.312500	-183.398437
778.729322	1.495793	-145.312500	-183.398437
778.731321	1.537575	-145.312500	-183.398437
778.735320	1.531661	16.848269	0.466956
779.761835	1.297023	-178.808594	195.800781
779.763836	0.839400	-178.808594	195.800781
779.765838	1.136346	-178.808594	195.800781
779.767837	1.413444	-178.808594	195.800781
779.769839	1.539904	-178.808594	195.800781
779.773836	1.533504	16.868547	0.450710
780.797919	0.331876	-138.671875	-186.523437
780.799919	0.649098	-138.671875	-186.523437
780.801923	0.955355	-138.671875	-186.523437
780.803920	1.243936	-138.671875	-186.523437
780.805921	1.494026	-138.671875	-186.523437
780.807922	1.537346	-138.671875	-186.523437
780.809923	1.533768	16.871452	0.449879
781.839916	0.457591	-146.582031	197.753906
781.841918	0.769787	-146.582031	197.753906
781.843918	1.070612	-146.582031	197.753906
781.845919	1.351247	-146.582031	197.753906
781.847919	1.535228	-146.582031	197.753906
781.849919	1.537084	-146.582031	197.753906
781.851918	1.534138	16.875521	0.425732
782.876516	0.597740	-140.917969	-189.453125
782.878519	0.906030	-140.917969	-189.453125
782.880518	1.197907	-140.917969	-189.453125
782.882519	1.464178	-140.917969	-189.453125
782.884519	1.538080	-140.917969	-189.453125
782.886519	1.534005	16.874058	0.469553
783.919020	0.951247	-51.660156	198.242187
783.921022	1.240147	-51.660156	198.242187
783.923021	1.491865	-51.660156	198.242187
783.925022	1.537521	-51.660156	198.242187
783.927024	1.533873	16.872604	0.752907
784.953079	0.368025	-131.347656	-192.675781
784.955082	0.683343	-131.347656	-192.675781
784.957082	0.987942	-131.347656	-192.675781
784.959082	1.274125	-131.347656	-192.675781
784.961082	1.509519	-131.347656	-192.675781
784.963081	1.536774	-131.347656	-192.675781
784.965082	1.533439	16.867828	0.454494
785.993096	0.381626	-114.941406	202.539062
785.995099	0.696358	-114.941406	202.539062
785.999094	1.285793	-114.941406	202.539062
786.001099	1.514826	-114.941406	202.539062
786.003099	1.536837	-114.941406	202.539062
786.005099	1.533495	16.868448	0.420253
787.031112	0.401299	-131.835937	-195.214844
787.033111	0.715310	-131.835937	-195.214844
787.035111	0.727445	-131.835937	-195.214844
787.037111	1.302597	-131.835937	-195.214844
787.039111	1.520904	-131.835937	-195.214844
787.043109	1.532744	-131.835937	-195.214844
787.045112	1.530820	16.839025	0.446067
788.073090	1.125301	-99.804687	204.394531
788.075093	1.403215	-99.804687	204.394531
788.077093	1.539119	-99.804687	204.394531
788.079094	1.535646	16.892111	0.414142
789.111103	0.540286	-140.429687	-197.070312
789.113104	0.850334	-140.429687	-197.070312
789.115105	1.146104	-140.429687	-197.070312
789.117103	1.422239	-140.429687	-197.070312
789.119105	1.539300	-140.429687	-197.070312
789.121105	1.535357	16.888929	0.454210
790.145633	0.405765	-146.972656	206.542969
790.147636	0.719506	-146.972656	206.542969
790.149636	1.022446	-146.972656	206.542969
790.151636	1.306350	-146.972656	206.542969
790.153635	1.522034	-146.972656	206.542969
790.155635	1.535795	-146.972656	206.542969
790.157635	1.535730	16.893032	0.439753
791.188185	0.453646	-125.292969	-197.558594
791.190186	0.765903	-125.292969	-197.558594
791.192185	1.066877	-125.292969	-197.558594
791.194185	1.347703	-125.292969	-197.558594
791.196186	1.533689	-125.292969	-197.558594
791.198187	1.536224	-125.292969	-197.558594
791.200185	1.533258	16.865843	0.470156
792.222194	0.367365	-83.789062	205.468750
792.224195	0.682724	-83.789062	205.468750
792.226194	0.987317	-83.789062	205.468750
792.228196	1.273703	-83.789062	205.468750
792.232193	1.537342	-83.789062	205.468750
792.234195	1.533947	-83.789062	205.468750
792.236196	1.531840	16.850237	0.408844
793.268179	0.812117	-134.179687	-198.437500
793.272180	1.389580	-134.179687	-198.437500
793.274183	1.403856	-134.179687	-198.437500
793.276184	1.535414	16.889549	0.420678
794.302739	0.919129	-123.730469	206.933594
794.304740	1.210240	-123.730469	206.933594
794.306742	1.472924	-123.730469	206.933594
794.310739	1.534436	-123.730469	206.933594
794.312741	1.532040	16.852444	0.604935
795.347308	1.102670	-124.121094	-197.460937
795.349310	1.381390	-124.121094	-197.460937
795.351312	1.538527	-124.121094	-197.460937
795.353311	1.536247	16.898722	0.459888
796.375356	0.283283	-103.320312	206.152344
796.377358	0.603020	-103.320312	206.152344
796.379359	0.911121	-103.320312	206.152344
796.381358	1.202662	-103.320312	206.152344
796.383357	1.467636	-103.320312	206.152344
796.385360	1.538279	-103.320312	206.152344
796.387360	1.534213	16.876345	0.428707
797.423403	0.817291	-139.648437	-197.753906
797.425405	1.115314	-139.648437	-197.753906
797.427405	1.393590	-139.648437	-197.753906
797.429407	1.538126	-139.648437	-197.753906
797.431406	1.535160	16.886759	0.430366
798.453410	0.344188	-108.203125	206.640625
798.455411	0.660659	-108.203125	206.640625
798.457411	0.966054	-108.203125	206.640625
798.459413	1.253887	-108.203125	206.640625
798.461412	1.499310	-108.203125	206.640625
798.463412	1.536760	-108.203125	206.640625
798.465412	1.533196	16.865152	0.414994
799.497432	0.496163	-135.546875	-198.339844
799.499433	0.807205	-135.546875	-198.339844
799.501433	1.105962	-135.546875	-198.339844
799.503433	1.384509	-135.546875	-198.339844
799.505435	1.538020	-135.546875	-198.339844
799.509432	1.532731	16.860037	0.436328
800.529977	0.284728	-113.574219	206.445312
800.531978	0.604268	-113.574219	206.445312
800.533980	0.912213	-113.574219	206.445312
800.537978	1.468263	-113.574219	206.445312
800.539978	1.538164	-113.574219	206.445312
800.541979	1.534162	16.875778	0.409086
801.575964	0.607636	-138.183594	-198.535156
801.577964	0.915350	-138.183594	-198.535156
801.579963	1.206625	-138.183594	-198.535156
801.581963	1.470276	-138.183594	-198.535156
801.583964	1.537845	-138.183594	-198.535156
801.585963	1.533949	16.873438	0.435529
802.610564	0.684116	-117.968750	205.957031
802.612565	0.988549	-117.968750	205.957031
802.614566	1.274771	-117.968750	205.957031
802.616566	1.510081	-117.968750	205.957031
802.618567	1.537168	-117.968750	205.957031
802.620566	1.533866	16.872524	0.400979
803.653083	0.657369	-121.386719	-198.046875
803.655084	0.963012	-121.386719	-198.046875
803.657084	1.251017	-121.386719	-198.046875
803.659086	1.497775	-121.386719	-198.046875
803.661086	1.536739	-121.386719	-198.046875
803.663084	1.533161	16.864771	0.428691
804.687116	0.473229	-58.105469	203.515625
804.689118	0.486299	-58.105469	203.515625
804.691118	1.084886	-58.105469	203.515625
804.695116	1.537978	-58.105469	203.515625
804.697119	1.537761	-58.105469	203.515625
804.699118	1.534935	16.884285	0.395833
805.729137	0.630133	-130.175781	-198.730469
805.731138	0.936878	-130.175781	-198.730469
805.733140	1.226599	-130.175781	-198.730469
805.735139	1.483359	-130.175781	-198.730469
805.737140	1.537208	-130.175781	-198.730469
805.739139	1.533464	16.868103	0.431512
806.765133	0.514698	-87.109375	202.832031
806.767137	0.825240	-87.109375	202.832031
806.769137	1.122695	-87.109375	202.832031
806.771136	1.400547	-87.109375	202.832031
806.773134	1.538584	-87.109375	202.832031
806.775136	1.535238	16.887619	0.391808
807.805138	0.545463	-134.765625	-197.949219
807.807139	0.855465	-134.765625	-197.949219
807.811139	1.426253	-134.765625	-197.949219
807.813140	1.538858	-134.765625	-197.949219
807.815140	1.534796	16.882751	0.439175
