time (s)	coil I (A)	last det (V)	int current (uC)
1990.248894	0.264257	-82.128906	183.007812
1990.250896	0.583942	-82.128906	183.007812
1990.252896	0.891309	-82.128906	183.007812
1990.256896	1.258522	-82.128906	183.007812
1990.258898	1.254607	-82.128906	183.007812
1990.260897	1.252526	13.777790	0.061757
1991.289000	0.506467	-119.140625	-225.488281
1991.291003	0.815866	-119.140625	-225.488281
1991.295001	1.257530	-119.140625	-225.488281
1991.297002	1.254958	-119.140625	-225.488281
1991.299002	1.252619	13.778810	0.067056
1992.327590	0.566166	-52.246094	184.960937
1992.329589	0.874224	-52.246094	184.960937
1992.331590	1.162111	-52.246094	184.960937
1992.333589	1.258419	-52.246094	184.960937
1992.335590	1.254517	13.799689	0.050379
1993.367609	0.429986	-120.019531	-231.054687
1993.369611	0.741435	-120.019531	-231.054687
1993.371611	1.042062	-120.019531	-231.054687
1993.373612	1.248172	-120.019531	-231.054687
1993.375612	1.255489	-120.019531	-231.054687
1993.377611	1.252748	13.780228	0.069047
1994.406504	0.851977	-40.722656	188.281250
1994.408506	1.144219	-40.722656	188.281250
1994.412506	1.254571	-40.722656	188.281250
1994.416504	1.251071	13.761777	0.052896
1995.450548	0.470611	-120.214844	-233.496094
1995.452550	0.780709	-120.214844	-233.496094
1995.454557	1.079562	-120.214844	-233.496094
1995.456564	1.256726	-120.214844	-233.496094
1995.458564	1.257367	-120.214844	-233.496094
1995.460564	1.254655	13.801205	0.056898
1996.480632	0.579131	-40.429687	190.429687
1996.482633	0.886799	-40.429687	190.429687
1996.484634	1.171646	-40.429687	190.429687
1996.486633	1.258142	-40.429687	190.429687
1996.488633	1.254363	13.797989	0.180603
1997.532652	0.377616	-118.750000	-235.156250
1997.534653	0.691043	-118.750000	-235.156250
1997.536654	0.700705	-118.750000	-235.156250
1997.538653	1.232841	-118.750000	-235.156250
1997.540654	1.256108	-118.750000	-235.156250
1997.542655	1.252962	13.782577	0.049298
1998.556697	0.686127	-46.386719	192.285156
1998.558700	0.989099	-46.386719	192.285156
1998.560699	1.231108	-46.386719	192.285156
1998.564697	1.253372	-46.386719	192.285156
1998.566699	1.251539	13.766925	0.064048
1999.613693	0.440842	-120.800781	-234.765625
1999.615695	0.752098	-120.800781	-234.765625
1999.617695	1.052171	-120.800781	-234.765625
1999.619693	1.250416	-120.800781	-234.765625
1999.621693	1.255420	-120.800781	-234.765625
1999.623693	1.252609	13.778695	0.047337
2000.633828	0.776091	-34.570312	191.210937
2000.635829	1.075117	-34.570312	191.210937
2000.637830	1.253964	-34.570312	191.210937
2000.639830	1.254736	-34.570312	191.210937
2000.643830	1.250685	13.757532	0.066258
2001.696421	0.706889	-119.824219	-235.449219
2001.698420	1.008930	-119.824219	-235.449219
2001.700420	1.238459	-119.824219	-235.449219
2001.702421	1.255642	-119.824219	-235.449219
2001.704422	1.252772	13.780495	0.050509
2002.710439	0.688338	-18.261719	190.722656
2002.712442	0.991165	-18.261719	190.722656
2002.714441	1.231560	-18.261719	190.722656
2002.716442	1.255620	-18.261719	190.722656
2002.718441	1.252527	13.777800	0.067113
2003.776499	0.458612	-120.703125	-234.667969
2003.778502	0.769180	-120.703125	-234.667969
2003.780503	1.068593	-120.703125	-234.667969
2003.782501	1.253907	-120.703125	-234.667969
2003.784500	1.255908	-120.703125	-234.667969
2003.786502	1.253181	13.784986	0.049843
2004.784495	0.291344	-9.472656	189.746094
2004.786499	0.609370	-9.472656	189.746094
2004.788497	0.915598	-9.472656	189.746094
2004.790497	1.191665	-9.472656	189.746094
2004.792497	1.257303	-9.472656	189.746094
2004.794499	1.253524	13.788762	0.066452
2005.856564	0.728096	-120.507812	-234.179687
2005.858566	1.029254	-120.507812	-234.179687
2005.860566	1.244950	-120.507812	-234.179687
2005.862566	1.255849	-120.507812	-234.179687
2005.864568	1.253021	13.783233	0.049107
2006.864539	0.484493	-9.375000	189.843750
2006.866541	0.794260	-9.375000	189.843750
2006.868541	1.092473	-9.375000	189.843750
2006.870541	1.099540	-9.375000	189.843750
2006.872541	1.254711	13.801826	0.062362
2007.936631	0.557341	-120.800781	-234.765625
2007.938634	0.570803	-120.800781	-234.765625
2007.940635	1.155468	-120.800781	-234.765625
2007.942634	1.258521	-120.800781	-234.765625
2007.944635	1.254732	13.802047	0.064569
2008.948652	0.863127	-8.886719	189.062500
2008.950652	1.153380	-8.886719	189.062500
2008.952653	1.258770	-8.886719	189.062500
2008.954654	1.255048	13.805530	0.062834
2010.014709	0.517185	-120.117187	-235.742187
2010.018708	1.122064	-120.117187	-235.742187
2010.020710	1.257191	-120.117187	-235.742187
2010.022715	1.254240	13.796640	0.045587
2011.024712	0.326651	-16.503906	189.648437
2011.026713	0.642656	-16.503906	189.648437
2011.028713	0.947442	-16.503906	189.648437
2011.030714	1.210778	-16.503906	189.648437
2011.032714	1.256657	-16.503906	189.648437
2011.034715	1.256525	13.821774	0.058178
2012.094748	0.819618	-119.335937	-237.011719
2012.096750	1.115954	-119.335937	-237.011719
2012.098751	1.258433	-119.335937	-237.011719
2012.100754	1.255888	13.814774	0.051327
2013.108856	0.758094	-25.976562	190.039062
2013.110859	1.057814	-25.976562	190.039062
2013.112857	1.251847	-25.976562	190.039062
2013.114859	1.255814	-25.976562	190.039062
2013.116860	1.253090	13.783995	0.064798
2014.170908	2.792206	-119.238281	-237.011719
2014.172912	0.948194	-119.238281	-237.011719
2014.176915	1.256700	-119.238281	-237.011719
2014.178917	1.253416	-119.238281	-237.011719
2014.180917	1.253296	13.786255	0.489251
2015.189527	0.703761	-38.085937	190.722656
2015.191529	1.005889	-38.085937	190.722656
2015.193530	1.237078	-38.085937	190.722656
2015.195529	1.255420	-38.085937	190.722656
2015.197529	1.252537	13.777905	0.061081
2016.247565	0.642652	-119.042969	-237.792969
2016.251563	1.210747	-119.042969	-237.792969
2016.253566	1.256646	-119.042969	-237.792969
2016.255565	1.253217	13.785385	0.047740
2017.270152	0.482098	-34.863281	188.671875
2017.272153	0.792003	-34.863281	188.671875
2017.274151	1.090376	-34.863281	188.671875
2017.276152	1.256830	-34.863281	188.671875
2017.278151	1.256191	13.818105	0.061711
2018.326197	0.941504	-116.992187	-237.304687
2018.328199	0.952204	-116.992187	-237.304687
2018.330198	1.257073	-116.992187	-237.304687
2018.332199	1.253629	13.789924	0.053254
2019.350272	0.420873	-41.503906	186.523437
2019.352273	0.732573	-41.503906	186.523437
2019.354275	1.033584	-41.503906	186.523437
2019.356275	1.246021	-41.503906	186.523437
2019.358274	1.255517	-41.503906	186.523437
2019.360273	1.252596	13.778552	0.056487
2020.400312	0.708226	-115.722656	-235.351562
2020.402314	1.010191	-115.722656	-235.351562
2020.406314	1.256021	-115.722656	-235.351562
2020.408320	1.253047	-115.722656	-235.351562
2020.410327	1.251443	13.765871	0.825579
2021.434384	0.443649	-52.734375	184.082031
2021.436388	0.754811	-52.734375	184.082031
2021.438386	1.054687	-52.734375	184.082031
2021.440386	1.250980	-52.734375	184.082031
2021.442386	1.255473	-52.734375	184.082031
2021.444386	1.255367	13.809039	0.051949
2022.476398	0.696616	-117.285156	-230.566406
2022.478400	0.999089	-117.285156	-230.566406
2022.480400	1.234722	-117.285156	-230.566406
2022.482400	1.255669	-117.285156	-230.566406
2022.484401	1.252617	13.778792	0.764792
2023.516437	0.484038	-59.082031	180.371094
2023.518441	0.793747	-59.082031	180.371094
2023.520438	1.091981	-59.082031	180.371094
2023.522441	1.255615	-59.082031	180.371094
2023.524439	1.254614	13.800753	0.054525
2024.554494	0.835710	-117.285156	-226.757812
2024.558495	1.258104	-117.285156	-226.757812
2024.560497	1.254803	-117.285156	-226.757812
2024.562497	1.252540	13.777941	0.066977
2025.595114	0.517119	-56.445312	176.269531
2025.597116	0.826308	-56.445312	176.269531
2025.599116	1.121934	-56.445312	176.269531
2025.601117	1.257430	-56.445312	176.269531
2025.603117	1.254429	13.798724	0.055978
2026.631177	0.481776	-116.992187	-221.972656
2026.633179	0.791699	-116.992187	-221.972656
2026.635180	1.090133	-116.992187	-221.972656
2026.637179	1.256398	-116.992187	-221.972656
2026.639178	1.255721	13.812929	0.061396
2027.675248	0.557661	-79.882812	173.925781
2027.677251	0.866001	-79.882812	173.925781
2027.679250	1.155556	-79.882812	173.925781
2027.681249	1.258194	-79.882812	173.925781
2027.683250	1.254371	13.798077	0.055363
2028.713290	0.693255	-119.433594	-217.773437
2028.715293	0.995931	-119.433594	-217.773437
2028.717293	1.233351	-119.433594	-217.773437
2028.719293	1.255370	-119.433594	-217.773437
2028.721291	1.252461	13.777073	0.059960
2029.753367	0.685394	-74.023437	171.386719
2029.755371	0.988325	-74.023437	171.386719
2029.757369	1.230485	-74.023437	171.386719
2029.759370	1.232568	-74.023437	171.386719
2029.761369	1.252774	13.780512	0.053792
2030.793951	0.497431	-118.847656	-215.429687
2030.795953	0.807005	-118.847656	-215.429687
2030.797953	1.104447	-118.847656	-215.429687
2030.799953	1.256776	-118.847656	-215.429687
2030.801953	1.254825	13.803075	0.061091
2031.828015	0.568950	-65.136719	169.335937
2031.830016	0.876912	-65.136719	169.335937
2031.832017	1.164268	-65.136719	169.335937
2031.834017	1.258879	-65.136719	169.335937
2031.836016	1.255076	13.805831	0.129637
2032.874116	0.541687	-120.214844	-212.890625
2032.876116	0.850427	-120.214844	-212.890625
2032.878115	0.862637	-120.214844	-212.890625
2032.880118	1.257725	-120.214844	-212.890625
2032.882117	1.254085	13.794940	0.053925
2033.904133	0.581108	-50.390625	168.164062
2033.906134	0.888597	-50.390625	168.164062
2033.908134	1.173086	-50.390625	168.164062
2033.910135	1.258470	-50.390625	168.164062
2033.912139	1.254570	13.800266	0.059703
2034.958167	0.636403	-121.875000	-211.523437
2034.960170	0.941397	-121.875000	-211.523437
2034.962169	1.207474	-121.875000	-211.523437
2034.964170	1.257077	-121.875000	-211.523437
2034.966170	1.253496	13.788452	0.054978
2035.982143	0.770262	-59.863281	168.750000
2035.984144	1.069558	-59.863281	168.750000
2035.986146	1.252991	-59.863281	168.750000
2035.990143	1.252039	-59.863281	168.750000
2035.994142	1.249156	13.740720	0.062222
2037.040187	0.591411	-123.632812	-210.351562
2037.042190	0.898390	-123.632812	-210.351562
2037.044189	1.180002	-123.632812	-210.351562
2037.046189	1.257841	-123.632812	-210.351562
2037.048187	1.254025	13.794275	0.046567
2038.056262	0.472806	-51.464844	168.945312
2038.058263	0.782831	-51.464844	168.945312
2038.060268	1.081806	-51.464844	168.945312
2038.062267	1.256636	-51.464844	168.945312
2038.064266	1.257198	-51.464844	168.945312
2038.066266	1.254413	13.798546	0.064317
2039.119309	0.532642	-123.339844	-211.230469
2039.121311	0.841263	-123.339844	-211.230469
2039.123310	1.135106	-123.339844	-211.230469
2039.125312	1.258186	-123.339844	-211.230469
2039.127311	1.254798	13.802782	0.047273
2040.133326	0.245434	-39.160156	168.261719
2040.135326	0.566271	-39.160156	168.261719
2040.137326	0.874318	-39.160156	168.261719
2040.139326	1.162195	-39.160156	168.261719
2040.141326	1.258441	-39.160156	168.261719
2040.145325	1.252486	13.777348	0.066595
2041.199382	0.466688	-123.144531	-211.718750
2041.201387	0.776995	-123.144531	-211.718750
2041.203391	1.076312	-123.144531	-211.718750
2041.205389	1.254935	-123.144531	-211.718750
2041.207390	1.255735	-123.144531	-211.718750
2041.209389	1.253160	13.784756	0.046585
2042.213430	0.449569	-28.027344	167.285156
2042.215432	0.760369	-28.027344	167.285156
2042.217432	1.060079	-28.027344	167.285156
2042.219433	1.251831	-28.027344	167.285156
2042.223429	1.252643	-28.027344	167.285156
2042.225432	1.251098	13.762078	0.062706
2043.277527	0.515569	-125.097656	-211.523437
2043.281531	1.120361	-125.097656	-211.523437
2043.283533	1.256834	-125.097656	-211.523437
2043.287536	1.251593	13.767519	0.051086
2044.292060	0.373397	-41.699219	167.187500
2044.294062	0.687083	-41.699219	167.187500
2044.296061	0.989871	-41.699219	167.187500
2044.298061	1.231317	-41.699219	167.187500
2044.300062	1.256134	-41.699219	167.187500
2044.302060	1.253026	13.783285	0.067862
2045.356649	0.356551	-123.828125	-212.500000
2045.358650	0.670935	-123.828125	-212.500000
2045.360651	0.974493	-123.828125	-212.500000
2045.362649	1.224522	-123.828125	-212.500000
2045.364650	1.256383	-123.828125	-212.500000
2045.366651	1.253181	13.784986	0.047923
2046.370667	0.336427	-36.621094	166.503906
2046.372671	0.651977	-36.621094	166.503906
2046.374669	0.956289	-36.621094	166.503906
2046.376669	1.215296	-36.621094	166.503906
2046.378670	1.256237	-36.621094	166.503906
2046.380670	1.252916	13.782072	0.065684
2047.436715	0.748277	-125.097656	-212.890625
2047.438718	1.048482	-125.097656	-212.890625
2047.440719	1.249284	-125.097656	-212.890625
2047.442719	1.254864	-125.097656	-212.890625
2047.446717	1.250596	13.756557	0.048395
2048.455276	0.795497	-53.417969	167.187500
2048.457278	1.093580	-53.417969	167.187500
2048.459278	1.255231	-53.417969	167.187500
2048.461278	1.253960	13.793566	0.064281
2049.512272	0.575118	-123.730469	-213.085937
2049.514275	0.882681	-123.730469	-213.085937
2049.516274	1.168509	-123.730469	-213.085937
2049.518276	1.258157	-123.730469	-213.085937
2049.520275	1.254249	13.796739	0.048746
2050.535286	0.539494	-45.996094	166.015625
2050.537290	0.848198	-45.996094	166.015625
2050.539287	1.140916	-45.996094	166.015625
2050.545286	1.252609	-45.996094	166.015625
2050.547288	1.251185	13.763036	0.057382
2051.589346	0.375818	-120.312500	-215.234375
2051.591349	0.689151	-120.312500	-215.234375
2051.593347	0.991945	-120.312500	-215.234375
2051.595349	1.231797	-120.312500	-215.234375
2051.597348	1.233817	-120.312500	-215.234375
2051.599349	1.252622	13.778846	0.055927
2052.617303	0.774336	-50.292969	165.820312
2052.619306	1.073481	-50.292969	165.820312
2052.621305	1.254086	-50.292969	165.820312
2052.623306	1.255194	-50.292969	165.820312
2052.625306	1.252588	13.778464	0.060646
2053.663396	0.364528	-118.945312	-217.089844
2053.665400	0.678590	-118.945312	-217.089844
2053.667398	0.981748	-118.945312	-217.089844
2053.669399	1.227499	-118.945312	-217.089844
2053.671398	1.255737	-118.945312	-217.089844
2053.673399	1.252601	13.778606	0.059382
2054.697412	0.473525	-62.792969	166.992187
2054.699415	0.783628	-62.792969	166.992187
2054.701441	1.082354	-62.792969	166.992187
2054.703445	1.255498	-62.792969	166.992187
2054.705443	1.256049	-62.792969	166.992187
2054.707446	1.252518	13.777702	0.057986
2055.743518	0.545262	-117.382812	-220.117187
2055.745520	0.853827	-117.382812	-220.117187
2055.747520	1.145854	-117.382812	-220.117187
2055.749521	1.259268	-117.382812	-220.117187
2055.753520	1.253362	13.786982	0.061988
2056.779520	0.522357	-64.257812	168.457031
2056.781521	0.831360	-64.257812	168.457031
2056.783520	1.126491	-64.257812	168.457031
2056.787519	1.254331	-64.257812	168.457031
2056.789520	1.252090	13.772987	0.057711
2057.817535	0.429954	-117.089844	-223.339844
2057.819536	0.741322	-117.089844	-223.339844
2057.821536	1.041919	-117.089844	-223.339844
2057.823536	1.247720	-117.089844	-223.339844
2057.825536	1.254874	-117.089844	-223.339844
2057.827537	1.252161	13.773767	0.061344
2058.857609	0.254062	-72.949219	170.898437
2058.859612	0.574256	-72.949219	170.898437
2058.861610	0.881898	-72.949219	170.898437
2058.863612	1.168290	-72.949219	170.898437
2058.867612	1.255362	-72.949219	170.898437
2058.869612	1.253232	13.785555	0.056970
2059.900122	0.869418	-116.796875	-227.539062
2059.902124	1.158397	-116.796875	-227.539062
2059.904125	1.258686	-116.796875	-227.539062
2059.906124	1.254873	13.803598	0.089852
2060.942742	0.821361	-56.933594	172.753906
2060.948743	1.254317	-56.933594	172.753906
2060.950746	1.252026	-56.933594	172.753906
2060.952745	1.250528	13.755804	0.050743
2061.974803	0.484464	-114.550781	-232.519531
2061.978803	1.092579	-114.550781	-232.519531
2061.980806	1.255499	-114.550781	-232.519531
2061.982811	1.254367	13.798032	0.060717
2063.020786	1.045762	-50.390625	175.878906
2063.022788	1.248854	-50.390625	175.878906
2063.024787	1.255256	-50.390625	175.878906
2063.026786	1.252595	13.778544	0.052880
2064.056772	0.370403	-115.039062	-236.621094
2064.058774	0.683937	-115.039062	-236.621094
2064.060772	0.986942	-115.039062	-236.621094
2064.062773	1.229849	-115.039062	-236.621094
2064.064773	1.255733	-115.039062	-236.621094
2064.066773	1.252726	13.779988	0.059863
2065.095245	0.750941	-55.859375	179.492187
2065.097246	1.051114	-55.859375	179.492187
2065.099244	1.249453	-55.859375	179.492187
2065.101246	1.254325	-55.859375	179.492187
2065.103246	1.251772	13.769495	0.056930
2066.135853	0.448382	-115.332031	-240.234375
2066.139853	1.058967	-115.332031	-240.234375
2066.141855	1.251191	-115.332031	-240.234375
2066.143856	1.254629	-115.332031	-240.234375
2066.145854	1.252019	13.772207	0.061417
2067.172442	0.734441	-46.582031	181.835937
2067.174445	1.035229	-46.582031	181.835937
2067.176445	1.246172	-46.582031	181.835937
2067.178445	1.255074	-46.582031	181.835937
2067.180446	1.252298	13.775283	0.053587
2068.218982	0.517339	-114.746094	-243.066406
2068.220985	0.826382	-114.746094	-243.066406
2068.222985	1.121937	-114.746094	-243.066406
2068.224985	1.258022	-114.746094	-243.066406
2068.226984	1.254976	13.804732	0.054654
2069.247061	0.435313	-30.175781	182.714844
2069.249064	0.746508	-30.175781	182.714844
2069.251063	1.046766	-30.175781	182.714844
2069.253063	1.248696	-30.175781	182.714844
2069.255062	1.254639	-30.175781	182.714844
2069.257062	1.251952	13.771473	0.059103
2070.299102	0.308664	-114.746094	-245.117187
2070.301104	0.625755	-114.746094	-245.117187
2070.303105	0.931191	-114.746094	-245.117187
2070.305105	1.201289	-114.746094	-245.117187
2070.307105	1.256492	-114.746094	-245.117187
2070.309105	1.252977	13.782744	0.051926
2071.325216	0.544892	-17.773437	182.617187
2071.327218	0.853289	-17.773437	182.617187
2071.329216	1.145185	-17.773437	182.617187
2071.331215	1.258252	-17.773437	182.617187
2071.333215	1.254625	13.800878	0.058698
2072.379273	0.442935	-115.136719	-245.019531
2072.383276	1.053834	-115.136719	-245.019531
2072.385277	1.250389	-115.136719	-245.019531
2072.387277	1.254784	-115.136719	-245.019531
2072.389275	1.252104	13.773148	0.050991
2073.403340	0.731736	-27.929687	184.472656
2073.405342	1.032584	-27.929687	184.472656
2073.407341	1.039610	-27.929687	184.472656
2073.409341	1.255073	-27.929687	184.472656
2073.411343	1.252369	13.776054	0.060000
2074.459931	0.446054	-116.308594	-245.019531
2074.461935	0.757030	-116.308594	-245.019531
2074.463935	1.056833	-116.308594	-245.019531
2074.465933	1.251007	-116.308594	-245.019531
2074.467933	1.254788	-116.308594	-245.019531
2074.469934	1.252246	13.774706	0.052752
2075.478910	0.400778	-27.148437	184.277344
2075.480911	0.713368	-27.148437	184.277344
2075.482912	1.015082	-27.148437	184.277344
2075.484912	1.240292	-27.148437	184.277344
2075.486912	1.255364	-27.148437	184.277344
2075.488912	1.252495	13.777446	0.060600
2076.539818	0.567955	-114.355469	-245.312500
2076.541820	0.875965	-114.355469	-245.312500
2076.543820	1.163572	-114.355469	-245.312500
2076.545822	1.258858	-114.355469	-245.312500
2076.547829	1.255072	13.805787	0.054934
2077.559865	0.730135	-20.898437	184.082031
2077.561868	1.031036	-20.898437	184.082031
2077.563868	1.246044	-20.898437	184.082031
2077.565867	1.256755	-20.898437	184.082031
2077.567869	1.253776	13.791536	0.059008
2078.620397	0.497755	-114.648437	-245.898437
2078.622400	0.807129	-114.648437	-245.898437
2078.624400	1.104554	-114.648437	-245.898437
2078.626401	1.257085	-114.648437	-245.898437
2078.628400	1.255067	13.805742	0.043739
2079.636435	0.351165	-22.949219	184.277344
2079.638436	0.665715	-22.949219	184.277344
2079.640436	0.969430	-22.949219	184.277344
2079.642436	1.221988	-22.949219	184.277344
2079.644436	1.255946	-22.949219	184.277344
2079.646436	1.252716	13.779873	0.063755
2080.701042	1.063319	-115.917969	-245.800781
2080.703043	1.251954	-115.917969	-245.800781
2080.705044	1.254597	-115.917969	-245.800781
2080.709040	1.250427	13.754696	0.050538
2081.715532	0.308066	-31.445312	184.375000
2081.717536	0.624776	-31.445312	184.375000
2081.719535	0.930362	-31.445312	184.375000
2081.721534	1.200627	-31.445312	184.375000
2081.723534	1.256025	-31.445312	184.375000
2081.725535	1.252625	13.778872	0.059538
2082.773586	0.244061	-114.355469	-247.460937
2082.775586	0.564806	-114.355469	-247.460937
2082.777587	0.873059	-114.355469	-247.460937
2082.779587	1.161055	-114.355469	-247.460937
2082.781587	1.257978	-114.355469	-247.460937
2082.783587	1.254184	13.796021	0.057503
2083.797631	0.460515	-25.976562	183.593750
2083.799632	0.770846	-25.976562	183.593750
2083.801634	1.069998	-25.976562	183.593750
2083.803633	1.253452	-25.976562	183.593750
2083.805633	1.255146	-25.976562	183.593750
2083.807633	1.252415	13.776568	0.057368
2084.856245	0.903898	-114.941406	-247.460937
2084.858247	1.183758	-114.941406	-247.460937
2084.860248	1.257124	-114.941406	-247.460937
2084.862249	1.253344	13.786786	0.053251
2085.874856	0.323506	-17.285156	181.933594
2085.876857	0.639605	-17.285156	181.933594
2085.878855	0.944479	-17.285156	181.933594
2085.882854	1.256022	-17.285156	181.933594
2085.884856	1.252697	-17.285156	181.933594
2085.886858	1.250801	13.758808	0.052856
2086.928926	0.564845	-113.085937	-246.777344
2086.930929	0.872890	-113.085937	-246.777344
2086.932930	1.161171	-113.085937	-246.777344
2086.934927	1.259229	-113.085937	-246.777344
2086.936929	1.255442	13.809864	0.052503
2087.958986	0.493074	-27.929687	180.957031
2087.960987	0.802650	-27.929687	180.957031
2087.962989	1.100312	-27.929687	180.957031
2087.964987	1.256542	-27.929687	180.957031
2087.966987	1.254916	13.804077	0.059144
2089.006995	0.483493	-112.500000	-246.386719
2089.008997	0.793526	-112.500000	-246.386719
2089.010998	1.091722	-112.500000	-246.386719
2089.012997	1.255312	-112.500000	-246.386719
2089.014999	1.254170	13.795870	0.047454
2090.039021	0.556656	-39.062500	179.394531
2090.041022	0.864969	-39.062500	179.394531
2090.043020	1.154770	-39.062500	179.394531
2090.045021	1.258613	-39.062500	179.394531
2090.047020	1.254868	13.803544	0.065373
2091.085081	0.603405	-112.207031	-244.433594
2091.087083	0.909830	-112.207031	-244.433594
2091.089081	1.187557	-112.207031	-244.433594
2091.091082	1.256794	-112.207031	-244.433594
2091.093083	1.253105	13.784154	0.054703
2092.119081	0.366009	-46.875000	177.148437
2092.121084	0.679936	-46.875000	177.148437
2092.123083	0.983010	-46.875000	177.148437
2092.125084	1.227895	-46.875000	177.148437
2092.127082	1.255293	-46.875000	177.148437
2092.129084	1.252236	13.774600	0.054891
2093.161139	0.609069	-113.574219	-240.136719
2093.163142	0.915241	-113.574219	-240.136719
2093.165141	1.191119	-113.574219	-240.136719
2093.167142	1.256468	-113.574219	-240.136719
2093.169140	1.252841	13.781247	0.061234
2094.203749	0.595416	-51.660156	173.437500
2094.205753	0.902120	-51.660156	173.437500
2094.207751	1.182372	-51.660156	173.437500
2094.209752	1.256788	-51.660156	173.437500
2094.211752	1.253115	13.784269	0.255920
2095.235728	0.503719	-113.281250	-236.328125
2095.237730	0.812979	-113.281250	-236.328125
2095.241729	1.256917	-113.281250	-236.328125
2095.243730	1.254545	-113.281250	-236.328125
2095.245731	1.252254	13.774796	0.061646
2096.283790	0.857748	-54.687500	170.312500
2096.285793	1.148819	-54.687500	170.312500
2096.287791	1.258174	-54.687500	170.312500
2096.289791	1.254557	13.800133	0.048316
2097.315851	0.562536	-113.476562	-232.812500
2097.317854	0.870738	-113.476562	-232.812500
2097.319855	1.159293	-113.476562	-232.812500
2097.321854	1.258095	-113.476562	-232.812500
2097.323854	1.254200	13.796197	0.096602
2098.363917	0.840204	-56.152344	167.382812
2098.365919	1.134170	-56.152344	167.382812
2098.367921	1.138910	-56.152344	167.382812
2098.369919	1.255101	13.806114	0.049883
2099.396003	0.586237	-113.964844	-228.906250
2099.398004	0.893382	-113.964844	-228.906250
2099.400003	1.176432	-113.964844	-228.906250
2099.402003	1.257861	-113.964844	-228.906250
2099.408002	1.250658	13.757239	0.220756
2100.440003	0.690313	-66.992187	166.015625
2100.442005	0.993078	-66.992187	166.015625
2100.444004	1.232472	-66.992187	166.015625
2100.446005	1.255952	-66.992187	166.015625
2100.448007	1.252890	13.781787	0.054221
2101.474582	0.383808	-115.625000	-225.585937
2101.476584	0.696930	-115.625000	-225.585937
2101.478583	0.999319	-115.625000	-225.585937
2101.480584	1.234856	-115.625000	-225.585937
2101.482585	1.255817	-115.625000	-225.585937
2101.484585	1.252746	13.780202	0.059451
2102.517190	0.809864	-68.457031	164.355469
2102.519191	1.106907	-68.457031	164.355469
2102.521192	1.256581	-68.457031	164.355469
2102.523191	1.254416	13.798581	0.052258
2103.557754	0.678644	-115.234375	-223.730469
2103.559755	0.981719	-115.234375	-223.730469
2103.561754	1.227313	-115.234375	-223.730469
2103.563754	1.255275	-115.234375	-223.730469
2103.565753	1.252315	13.775460	0.058859
2104.591726	0.578252	-51.464844	162.597656
2104.593728	0.886002	-51.464844	162.597656
2104.595729	1.170955	-51.464844	162.597656
2104.597728	1.258071	-51.464844	162.597656
2104.599728	1.254126	13.795382	0.181957
2105.637772	0.421472	-116.308594	-221.972656
2105.639773	0.733019	-116.308594	-221.972656
2105.641774	1.033869	-116.308594	-221.972656
2105.643774	1.245574	-116.308594	-221.972656
2105.645773	1.254757	-116.308594	-221.972656
2105.647774	1.252157	13.773732	0.055064
2106.667828	0.688948	-60.253906	162.597656
2106.669832	0.991658	-60.253906	162.597656
2106.671829	1.231722	-60.253906	162.597656
2106.673830	1.255586	-60.253906	162.597656
2106.675832	1.252700	13.779696	0.736060
2107.718866	0.573852	-117.871094	-221.386719
2107.720868	0.881619	-117.871094	-221.386719
2107.722870	1.167869	-117.871094	-221.386719
2107.724869	1.259207	-117.871094	-221.386719
2107.726869	1.255385	13.809235	0.142491
2108.744905	0.391809	-37.304687	161.132812
2108.746908	0.704428	-37.304687	161.132812
2108.748908	0.714684	-37.304687	161.132812
2108.752905	1.255050	-37.304687	161.132812
2108.754908	1.252190	-37.304687	161.132812
2108.758908	1.249085	13.739930	0.056142
2109.801008	0.649714	-118.261719	-221.582031
2109.803011	0.954140	-118.261719	-221.582031
2109.805010	1.214195	-118.261719	-221.582031
2109.807008	1.256253	-118.261719	-221.582031
2109.809010	1.252881	13.781691	0.050106
2110.823024	0.538933	-49.023437	161.914062
2110.825024	0.847534	-49.023437	161.914062
2110.827024	1.140354	-49.023437	161.914062
2110.829025	1.258242	-49.023437	161.914062
2110.831026	1.254642	13.801064	0.060723
2111.879592	0.626386	-120.410156	-220.214844
2111.881595	0.931824	-120.410156	-220.214844
2111.883594	1.201604	-120.410156	-220.214844
2111.885593	1.256289	-120.410156	-220.214844
2111.887594	1.252779	13.780565	0.050862
2112.899657	0.328411	-29.785156	161.230469
2112.901660	0.644148	-29.785156	161.230469
2112.903659	0.948835	-29.785156	161.230469
2112.905661	1.211309	-29.785156	161.230469
2112.907659	1.256021	-29.785156	161.230469
2112.909661	1.252725	13.779971	0.061819
2113.959633	0.511410	-119.824219	-220.117187
2113.961632	0.820612	-119.824219	-220.117187
2113.963633	1.116717	-119.824219	-220.117187
2113.965633	1.257141	-119.824219	-220.117187
2113.967633	1.254280	13.797084	0.046612
2114.980568	1.377001	-25.292969	160.742187
2114.984568	1.253219	-25.292969	160.742187
2114.986571	1.254486	-25.292969	160.742187
2114.988569	1.252036	13.772393	0.058715
2116.038523	0.619154	-120.214844	-220.703125
2116.042526	1.197309	-120.214844	-220.703125
2116.044528	1.256334	-120.214844	-220.703125
2116.046528	1.252806	13.780866	0.374909
2117.061458	1.038503	-26.660156	160.742187
2117.063462	1.246917	-26.660156	160.742187
2117.065462	1.254963	-26.660156	160.742187
2117.067461	1.252260	13.774857	0.059693
2118.113512	0.354602	-118.554687	-221.289062
2118.115514	0.668894	-118.554687	-221.289062
2118.117514	0.972480	-118.554687	-221.289062
2118.119514	1.223221	-118.554687	-221.289062
2118.121515	1.255543	-118.554687	-221.289062
2118.123514	1.252427	13.776691	0.049788
2119.139524	0.709966	-31.835937	160.546875
2119.141527	1.011726	-31.835937	160.546875
2119.143527	1.239051	-31.835937	160.546875
2119.145527	1.255064	-31.835937	160.546875
2119.147529	1.252195	13.774149	0.059190
2120.195534	0.590533	-117.968750	-222.460937
2120.197537	0.897324	-117.968750	-222.460937
2120.199536	1.179298	-117.968750	-222.460937
2120.201535	1.257563	-117.968750	-222.460937
2120.203535	1.253755	13.791306	0.225158
2121.222110	0.870295	-56.347656	161.328125
2121.224111	1.158933	-56.347656	161.328125
2121.226113	1.258271	-56.347656	161.328125
2121.228111	1.254446	13.798910	0.059682
2122.270730	0.401263	-117.187500	-223.242187
2122.272732	0.713671	-117.187500	-223.242187
2122.274730	1.015389	-117.187500	-223.242187
2122.276731	1.240566	-117.187500	-223.242187
2122.278731	1.255589	-117.187500	-223.242187
2122.280730	1.252742	13.780167	0.054144
2123.300837	0.794749	-44.921875	160.644531
2123.304842	1.256742	-44.921875	160.644531
2123.306847	1.255802	-44.921875	160.644531
2123.308845	1.253168	13.784845	0.056675
2124.346813	1.572854	-115.234375	-225.878906
2124.348816	0.820133	-115.234375	-225.878906
2124.350814	1.116312	-115.234375	-225.878906
2124.352816	1.256451	-115.234375	-225.878906
2124.354817	1.253699	13.790686	0.053362
2125.382804	0.742560	-59.863281	161.718750
2125.384804	1.042902	-59.863281	161.718750
2125.386805	1.247958	-59.863281	161.718750
2125.388805	1.254786	-59.863281	161.718750
2125.390806	1.252119	13.773307	0.056604
2126.423383	0.534262	-115.917969	-227.539062
2126.425386	0.842967	-115.917969	-227.539062
2126.427383	1.136441	-115.917969	-227.539062
2126.429384	1.258382	-115.917969	-227.539062
2126.431385	1.254840	13.803235	0.057632
2127.463403	0.537264	-70.898437	162.988281
2127.465403	0.845874	-70.898437	162.988281
2127.467404	1.138826	-70.898437	162.988281
2127.469405	1.258017	-70.898437	162.988281
2127.471405	1.254517	13.799689	0.049480
2128.499427	0.416261	-113.281250	-231.542969
2128.501428	0.727989	-113.281250	-231.542969
2128.505425	1.243991	-113.281250	-231.542969
2128.507428	1.254380	-113.281250	-231.542969
2128.509428	1.251850	13.770346	0.056606
2129.543505	0.771442	-67.675781	164.355469
2129.545506	1.070587	-67.675781	164.355469
2129.547506	1.252986	-67.675781	164.355469
2129.549505	1.254349	-67.675781	164.355469
2129.551506	1.251779	13.769566	0.051940
2130.580088	0.932810	-113.867187	-234.765625
2130.582092	1.202283	-113.867187	-234.765625
2130.584092	1.256617	-113.867187	-234.765625
2130.586091	1.253052	13.783577	0.408295
2131.621046	0.609630	-52.343750	165.039062
2131.623050	0.915708	-52.343750	165.039062
2131.625050	1.191616	-52.343750	165.039062
2131.629048	1.253274	-52.343750	165.039062
2131.631047	1.251291	13.764205	0.050109
2132.657097	0.532891	-112.597656	-239.355469
2132.659099	0.841324	-112.597656	-239.355469
2132.661098	1.135134	-112.597656	-239.355469
2132.663098	1.258146	-112.597656	-239.355469
2132.665100	1.254732	13.802056	0.059068
2133.703095	0.885273	-47.949219	167.578125
2133.705097	1.170497	-47.949219	167.578125
2133.707096	1.258417	-47.949219	167.578125
2133.709096	1.254554	13.800097	0.162565
2134.735103	0.295077	-112.109375	-242.968750
2134.737106	0.612766	-112.109375	-242.968750
2134.739104	0.918692	-112.109375	-242.968750
2134.741105	1.193309	-112.109375	-242.968750
2134.743105	1.256409	-112.109375	-242.968750
2134.745105	1.252779	13.780573	0.060783
2135.779186	0.618673	-53.808594	170.703125
2135.781188	0.924463	-53.808594	170.703125
2135.783187	1.196940	-53.808594	170.703125
2135.785189	1.256341	-53.808594	170.703125
2135.787188	1.252666	13.779324	0.369005
2136.813776	0.491526	-111.914062	-246.484375
2136.815778	0.801291	-111.914062	-246.484375
2136.817778	1.098993	-111.914062	-246.484375
2136.819778	1.256657	-111.914062	-246.484375
2136.821780	1.255254	13.807798	0.059829
2137.857872	0.711884	-52.343750	173.046875
2137.859873	1.013604	-52.343750	173.046875
2137.863873	1.255017	-52.343750	173.046875
2137.865873	1.252153	-52.343750	173.046875
2137.867875	1.250449	13.754934	0.048604
2138.894440	0.374983	-112.890625	-248.828125
2138.896441	0.688537	-112.890625	-248.828125
2138.898440	0.991204	-112.890625	-248.828125
2138.900440	1.231524	-112.890625	-248.828125
2138.902440	1.255587	-112.890625	-248.828125
2138.904440	1.252595	13.778544	0.057642
2139.930487	0.250803	-46.191406	175.195312
2139.932487	0.571139	-46.191406	175.195312
2139.936486	0.888295	-46.191406	175.195312
2139.938490	1.257011	-46.191406	175.195312
2139.940489	1.253263	13.785891	0.054403
2140.976538	0.383566	-111.425781	-251.757812
2140.980536	0.999044	-111.425781	-251.757812
2140.982538	1.234738	-111.425781	-251.757812
2140.984537	1.255529	-111.425781	-251.757812
2140.988537	1.250824	13.759065	0.051655
2142.008604	0.603389	-23.046875	175.390625
2142.010608	0.909870	-23.046875	175.390625
2142.012606	1.187623	-23.046875	175.390625
2142.014607	1.257041	-23.046875	175.390625
2142.016607	1.253314	13.786449	0.285989
2143.056648	0.500319	-110.546875	-253.613281
2143.058651	0.809584	-110.546875	-253.613281
2143.062648	1.257115	-110.546875	-253.613281
2143.066648	1.252649	-110.546875	-253.613281
2143.070648	1.249941	13.749352	0.052579
2144.088750	0.707159	-16.210937	175.878906
2144.090752	1.009037	-16.210937	175.878906
2144.092751	1.238188	-16.210937	175.878906
2144.094751	1.255333	-16.210937	175.878906
2144.096752	1.252511	13.777622	0.057810
2145.136836	0.328956	-111.523437	-254.980469
2145.138836	0.644409	-111.523437	-254.980469
2145.140836	0.949067	-111.523437	-254.980469
2145.142838	1.211636	-111.523437	-254.980469
2145.144837	1.256755	-111.523437	-254.980469
2145.146839	1.253291	13.786201	0.054412
2146.166905	0.951694	-12.011719	175.878906
2146.170906	1.256374	-12.011719	175.878906
2146.172908	1.253057	-12.011719	175.878906
2146.176906	1.251128	13.762406	0.509753
2147.214957	0.335586	-111.425781	-255.566406
2147.216960	0.650821	-111.425781	-255.566406
2147.218960	0.955186	-111.425781	-255.566406
2147.220959	1.214796	-111.425781	-255.566406
2147.222960	1.256435	-111.425781	-255.566406
2147.224960	1.253049	13.783542	0.051351
2148.241067	0.507792	-10.449219	176.171875
2148.243069	0.520088	-10.449219	176.171875
2148.245070	1.113406	-10.449219	176.171875
2148.247068	1.120248	-10.449219	176.171875
2148.249068	1.255648	13.812123	0.055757
2149.297104	0.433863	-112.109375	-255.761719
2149.301104	1.045472	-112.109375	-255.761719
2149.303107	1.248574	-112.109375	-255.761719
2149.305106	1.254750	-112.109375	-255.761719
2149.307105	1.252091	13.773005	0.050474
2150.319152	0.488593	-25.781250	177.246094
2150.321155	0.798062	-25.781250	177.246094
2150.323154	1.095987	-25.781250	177.246094
2150.325155	1.255913	-25.781250	177.246094
2150.327154	1.254611	13.800726	0.058178
2151.375738	0.698754	-112.988281	-255.468750
2151.377742	1.000864	-112.988281	-255.468750
2151.379740	1.235354	-112.988281	-255.468750
2151.381742	1.255473	-112.988281	-255.468750
2151.383742	1.252621	13.778828	0.050680
2152.399743	0.461745	-13.281250	176.464844
2152.401747	0.772024	-13.281250	176.464844
2152.403745	1.071033	-13.281250	176.464844
2152.405751	1.084454	-13.281250	176.464844
2152.407748	1.254553	-13.281250	176.464844
2152.409749	1.251956	13.771516	0.057255
2153.451790	0.523106	-111.230469	-256.250000
2153.455791	1.126894	-111.230469	-256.250000
2153.457791	1.257352	-111.230469	-256.250000
2153.459791	1.254173	13.795905	0.050507
2154.477780	0.434460	-19.042969	175.976562
2154.479781	0.745684	-19.042969	175.976562
2154.481779	1.045992	-19.042969	175.976562
2154.483780	1.248618	-19.042969	175.976562
2154.485779	1.254690	-19.042969	175.976562
2154.487781	1.251994	13.771933	0.055525
2155.533831	0.876832	-111.132812	-256.347656
2155.535832	0.888501	-111.132812	-256.347656
2155.539831	1.254894	-111.132812	-256.347656
2155.541833	1.252667	13.779332	0.127791
2156.557902	0.245435	-31.054687	175.488281
2156.559903	0.566364	-31.054687	175.488281
2156.563903	1.161853	-31.054687	175.488281
2156.565904	1.257339	-31.054687	175.488281
2156.567903	1.253429	13.787717	0.051205
2157.608474	0.524575	-111.328125	-255.664062
2157.610480	0.833155	-111.328125	-255.664062
2157.612483	1.128747	-111.328125	-255.664062
2157.616483	1.254852	-111.328125	-255.664062
2157.618486	1.252493	13.777428	0.049681
2158.638542	0.473162	-25.488281	173.828125
2158.640542	0.482464	-25.488281	173.828125
2158.642563	1.081672	-25.488281	173.828125
2158.644564	1.254475	-25.488281	173.828125
2158.646564	1.254106	-25.488281	173.828125
2158.648564	1.251694	13.768637	0.052634
2159.686637	0.678512	-110.253906	-255.566406
2159.688640	0.981619	-110.253906	-255.566406
2159.690640	1.227455	-110.253906	-255.566406
2159.692639	1.255618	-110.253906	-255.566406
2159.694641	1.252508	13.777587	0.051227
2160.720736	0.536546	-33.398437	172.460937
2160.722735	0.845136	-33.398437	172.460937
2160.724736	1.138223	-33.398437	172.460937
2160.726737	1.257814	-33.398437	172.460937
2160.728736	1.254217	13.796383	0.052309
2161.762763	0.553832	-111.523437	-252.734375
2161.764764	0.862098	-111.523437	-252.734375
2161.766763	1.152349	-111.523437	-252.734375
2161.768764	1.258049	-111.523437	-252.734375
2161.770763	1.254250	13.796746	0.055414
2162.803437	1.102353	-36.132812	169.628906
2162.805441	1.256990	-36.132812	169.628906
2162.809437	1.252820	13.781025	0.049854
2163.839487	0.561539	-111.230469	-250.878906
2163.841488	0.869635	-111.230469	-250.878906
2163.843488	1.158634	-111.230469	-250.878906
2163.845487	1.260299	-111.230469	-250.878906
2163.847489	1.256726	13.823981	0.092698
2164.881569	0.666630	-59.667969	168.750000
2164.883572	0.970283	-59.667969	168.750000
2164.885574	1.222458	-59.667969	168.750000
2164.887575	1.255945	-59.667969	168.750000
2164.889575	1.252693	13.779625	0.614864
2165.917644	0.712923	-112.207031	-247.070312
2165.919647	1.014553	-112.207031	-247.070312
2165.921647	1.240299	-112.207031	-247.070312
2165.923647	1.255531	-112.207031	-247.070312
2165.927644	1.250944	13.760386	0.057349
2166.960606	0.516148	-63.671875	166.308594
2166.962607	0.825082	-63.671875	166.308594
2166.964607	1.120719	-63.671875	166.308594
2166.966608	1.257896	-63.671875	166.308594
2166.968607	1.255009	13.805096	0.045568
2167.996671	0.721742	-112.304687	-244.140625
2167.998673	1.023023	-112.304687	-244.140625
2168.000674	1.242477	-112.304687	-244.140625
2168.002675	1.254736	-112.304687	-244.140625
2168.004674	1.251937	13.771303	0.063216
2169.039192	1.910880	-57.324219	162.500000
2169.041192	0.725334	-57.324219	162.500000
2169.043193	1.026540	-57.324219	162.500000
2169.045192	1.243513	-57.324219	162.500000
2169.047192	1.254612	-57.324219	162.500000
2169.049194	1.251898	13.770879	0.049641
2170.075165	0.724055	-111.914062	-240.136719
2170.077167	1.025231	-111.914062	-240.136719
2170.079166	1.243006	-111.914062	-240.136719
2170.081166	1.254601	-111.914062	-240.136719
2170.083169	1.251925	13.771171	0.057945
2171.117237	0.428397	-65.917969	160.449219
2171.119237	0.739852	-65.917969	160.449219
2171.123236	1.247120	-65.917969	160.449219
2171.125237	1.254723	-65.917969	160.449219
2171.127235	1.251979	13.771765	0.051367
2172.151297	0.439795	-112.402344	-237.402344
2172.153298	0.750885	-112.402344	-237.402344
2172.155299	1.050836	-112.402344	-237.402344
2172.157299	1.249647	-112.402344	-237.402344
2172.161297	1.252099	-112.402344	-237.402344
2172.163299	1.250290	13.753189	0.059804
2173.193405	0.548868	-66.113281	159.082031
2173.195406	0.857087	-66.113281	159.082031
2173.197405	1.148390	-66.113281	159.082031
2173.199406	1.153729	-66.113281	159.082031
2173.201407	1.254335	13.797687	0.056285
2174.236024	0.777793	-113.085937	-236.523437
2174.238024	1.076606	-113.085937	-236.523437
2174.240024	1.254489	-113.085937	-236.523437
2174.242024	1.255224	-113.085937	-236.523437
2174.244026	1.252704	13.779740	0.054232
2175.272102	0.506470	-61.230469	156.542969
2175.274103	0.815668	-61.230469	156.542969
2175.276104	1.112213	-61.230469	156.542969
2175.278102	1.257212	-61.230469	156.542969
2175.280104	1.254739	13.802127	0.056478
2176.314185	0.452251	-116.308594	-234.277344
2176.316186	0.762874	-116.308594	-234.277344
2176.318186	1.062374	-116.308594	-234.277344
2176.320185	1.251698	-116.308594	-234.277344
2176.322186	1.254570	-116.308594	-234.277344
2176.324186	1.251973	13.771702	0.051813
2177.349182	0.488080	-60.839844	155.761719
2177.351184	0.797732	-60.839844	155.761719
2177.353183	1.095635	-60.839844	155.761719
2177.355182	1.256178	-60.839844	155.761719
2177.357183	1.254904	13.803943	0.052098
2178.394067	1.312247	-116.308594	-233.105469
2178.396067	0.705143	-116.308594	-233.105469
2178.398069	1.007121	-116.308594	-233.105469
2178.400067	1.237383	-116.308594	-233.105469
2178.402067	1.255011	-116.308594	-233.105469
2178.406065	1.250445	13.754899	0.055303
2179.424187	0.429397	-37.109375	154.589844
2179.426190	0.740680	-37.109375	154.589844
2179.428191	1.041120	-37.109375	154.589844
2179.430188	1.247457	-37.109375	154.589844
2179.432190	1.254694	-37.109375	154.589844
2179.434189	1.252035	13.772386	0.054829
2180.476285	0.460978	-116.406250	-232.421875
2180.478286	0.771381	-116.406250	-232.421875
2180.480284	1.070562	-116.406250	-232.421875
2180.482285	1.253104	-116.406250	-232.421875
2180.484287	1.254490	-116.406250	-232.421875
2180.486286	1.251891	13.770799	0.050831
2181.502301	0.373897	-58.984375	155.761719
2181.504301	0.687443	-58.984375	155.761719
2181.506301	0.990191	-58.984375	155.761719
2181.508301	1.230960	-58.984375	155.761719
2181.510299	1.255439	-58.984375	155.761719
2181.512300	1.252417	13.776586	0.056592
2182.554356	0.357114	-117.285156	-230.859375
2182.556356	0.671288	-117.285156	-230.859375
2182.558356	0.974800	-117.285156	-230.859375
2182.560356	1.224492	-117.285156	-230.859375
2182.564354	1.252855	-117.285156	-230.859375
2182.566356	1.251075	13.761829	0.048688
2183.578971	0.495531	-37.890625	154.492187
2183.580973	0.804945	-37.890625	154.492187
2183.582973	1.102372	-37.890625	154.492187
2183.584973	1.255772	-37.890625	154.492187
2183.586974	1.253976	13.793735	0.058504
2184.635041	0.505292	-116.992187	-230.566406
2184.637045	0.814617	-116.992187	-230.566406
2184.639049	1.111655	-116.992187	-230.566406
2184.641044	1.257478	-116.992187	-230.566406
2184.645045	1.252663	13.779288	0.045738
2185.659635	0.597786	-34.472656	154.101562
2185.661635	0.904223	-34.472656	154.101562
2185.663637	0.913764	-34.472656	154.101562
2185.665636	1.256393	-34.472656	154.101562
2185.667635	1.252833	13.781167	0.058226
2186.711636	0.330595	-116.503906	-230.761719
2186.713639	0.646079	-116.503906	-230.761719
2186.715638	0.950552	-116.503906	-230.761719
2186.717639	1.212026	-116.503906	-230.761719
2186.719637	1.255835	-116.503906	-230.761719
2186.721639	1.252513	13.777639	0.050750
2187.741684	1.027625	-32.128906	154.199219
2187.743685	1.243928	-32.128906	154.199219
2187.745687	1.254939	-32.128906	154.199219
2187.747686	1.252203	13.774227	0.054821
2188.789801	0.366755	-116.406250	-231.054687
2188.791805	0.680505	-116.406250	-231.054687
2188.793805	0.983461	-116.406250	-231.054687
2188.795804	1.228033	-116.406250	-231.054687
2188.797804	1.255117	-116.406250	-231.054687
2188.799803	1.252117	13.773289	0.049598
2189.817860	0.721043	-54.980469	155.273437
2189.819861	1.022212	-54.980469	155.273437
2189.821861	1.242315	-54.980469	155.273437
2189.823861	1.254826	-54.980469	155.273437
2189.825860	1.252033	13.772358	0.060710
2190.872849	0.604441	-117.480469	-231.835937
2190.874850	0.910829	-117.480469	-231.835937
2190.876851	1.188151	-117.480469	-231.835937
2190.878851	1.256401	-117.480469	-231.835937
2190.880850	1.252715	13.779865	0.053551
2191.895456	0.386101	-41.894531	154.296875
2191.897459	0.699032	-41.894531	154.296875
2191.899459	1.001227	-41.894531	154.296875
2191.901457	1.235316	-41.894531	154.296875
2191.903459	1.255266	-41.894531	154.296875
2191.905458	1.252400	13.776400	0.059730
2192.949446	0.828741	-115.429687	-233.007812
2192.951457	1.123976	-115.429687	-233.007812
2192.953461	1.257816	-115.429687	-233.007812
2192.955464	1.254631	13.800939	0.053369
2193.975491	0.471678	-45.410156	154.492187
2193.977494	0.781862	-45.410156	154.492187
2193.979497	1.080845	-45.410156	154.492187
2193.981495	1.256005	-45.410156	154.492187
2193.983495	1.256533	-45.410156	154.492187
2193.985495	1.253862	13.792485	0.057057
2195.025600	0.669384	-113.769531	-234.375000
2195.027602	0.972835	-113.769531	-234.375000
2195.029603	1.223272	-113.769531	-234.375000
2195.031603	1.255609	-113.769531	-234.375000
2195.033604	1.252405	13.776453	0.054267
2196.057656	0.570116	-47.949219	154.785156
2196.059658	0.877903	-47.949219	154.785156
2196.061657	1.164962	-47.949219	154.785156
2196.063659	1.258299	-47.949219	154.785156
2196.065656	1.254457	13.799025	0.135268
2197.099695	0.261655	-114.355469	-235.156250
2197.101696	0.581413	-114.355469	-235.156250
2197.103696	0.888560	-114.355469	-235.156250
2197.105696	1.172748	-114.355469	-235.156250
2197.107696	1.257592	-114.355469	-235.156250
2197.109696	1.253770	13.791465	0.057122
2198.138258	0.704248	-62.500000	155.664062
2198.140261	1.006197	-62.500000	155.664062
2198.142262	1.237114	-62.500000	155.664062
2198.144262	1.255120	-62.500000	155.664062
2198.148260	1.250484	13.755325	0.054274
2199.178811	0.729760	-113.476562	-237.792969
2199.180812	1.030611	-113.476562	-237.792969
2199.182813	1.244487	-113.476562	-237.792969
2199.184816	1.254500	-113.476562	-237.792969
2199.186816	1.251757	13.769327	0.058171
2200.219406	0.643257	-50.781250	156.152344
2200.221407	0.947907	-50.781250	156.152344
2200.223407	1.210582	-50.781250	156.152344
2200.225407	1.255864	-50.781250	156.152344
2200.227408	1.252598	13.778580	0.050709
2201.257438	0.907237	-112.207031	-241.015625
2201.259438	1.185602	-112.207031	-241.015625
2201.261440	1.256179	-112.207031	-241.015625
2201.263440	1.252522	13.777746	0.283777
2202.298063	0.791283	-52.539062	157.714844
2202.302066	1.095831	-52.539062	157.714844
2202.304068	1.254081	-52.539062	157.714844
2202.306068	1.251718	13.768903	0.052370
2203.334087	0.433434	-110.937500	-244.531250
2203.336088	0.444026	-110.937500	-244.531250
2203.338089	1.045008	-110.937500	-244.531250
2203.340088	1.248117	-110.937500	-244.531250
2203.342089	1.254405	-110.937500	-244.531250
2203.344088	1.251724	13.768964	0.055348
2204.378124	0.643151	-63.183594	160.546875
2204.380126	0.947765	-63.183594	160.546875
2204.382126	0.956054	-63.183594	160.546875
2204.384127	1.256383	-63.183594	160.546875
2204.386126	1.252955	13.782506	0.490937
2205.410692	0.339603	-111.132812	-247.558594
2205.412693	0.654588	-111.132812	-247.558594
2205.414692	0.958667	-111.132812	-247.558594
2205.416694	1.216372	-111.132812	-247.558594
2205.418693	1.255646	-111.132812	-247.558594
2205.420693	1.252338	13.775717	0.057171
2206.455274	0.556579	-67.187500	162.792969
2206.457276	0.864676	-67.187500	162.792969
2206.459274	1.154506	-67.187500	162.792969
2206.461277	1.258173	-67.187500	162.792969
2206.463276	1.254366	13.798024	0.052874
2207.489312	0.483686	-110.839844	-251.074219
2207.491315	0.792982	-110.839844	-251.074219
2207.493313	1.091170	-110.839844	-251.074219
2207.495314	1.255753	-110.839844	-251.074219
2207.497312	1.254815	13.802969	0.058982
2208.532318	0.329417	-47.363281	164.160156
2208.534321	0.644807	-47.363281	164.160156
2208.536321	0.949441	-47.363281	164.160156
2208.538319	1.211527	-47.363281	164.160156
2208.540320	1.255691	-47.363281	164.160156
2208.542321	1.252428	13.776710	0.050254
2209.570285	0.516710	-109.570312	-254.785156
2209.572287	0.825622	-109.570312	-254.785156
2209.574287	1.121252	-109.570312	-254.785156
2209.576286	1.257624	-109.570312	-254.785156
2209.578288	1.254578	13.800364	0.057681
2210.612363	0.461077	-52.246094	166.699219
2210.614366	0.771258	-52.246094	166.699219
2210.616365	1.070378	-52.246094	166.699219
2210.618366	1.253186	-52.246094	166.699219
2210.620366	1.254673	-52.246094	166.699219
2210.622365	1.252093	13.773023	0.047127
2211.649387	0.577280	-110.351562	-256.835937
2211.651389	0.884640	-110.351562	-256.835937
2211.653390	1.169954	-110.351562	-256.835937
2211.655390	1.257930	-110.351562	-256.835937
2211.657390	1.254074	13.794815	0.058732
2212.687951	0.327146	-30.957031	167.382812
2212.689954	0.642867	-30.957031	167.382812
2212.691952	0.947450	-30.957031	167.382812
2212.693953	1.210300	-30.957031	167.382812
2212.695953	1.255678	-30.957031	167.382812
2212.697954	1.252397	13.776363	0.049835
2213.732035	0.787417	-110.351562	-259.277344
2213.734039	1.085764	-110.351562	-259.277344
2213.736044	1.254942	-110.351562	-259.277344
2213.738043	1.254475	13.799229	0.053279
2214.764569	0.362518	-41.308594	169.238281
2214.766570	0.676348	-41.308594	169.238281
2214.768570	0.979605	-41.308594	169.238281
2214.770570	1.226108	-41.308594	169.238281
2214.772571	1.254844	-41.308594	169.238281
2214.774570	1.254700	13.801701	0.052401
2215.807482	0.314002	-108.984375	-261.328125
2215.809485	0.630397	-108.984375	-261.328125
2215.811483	0.935638	-108.984375	-261.328125
2215.813484	1.203613	-108.984375	-261.328125
2215.817483	1.252419	-108.984375	-261.328125
2215.819484	1.250505	13.755554	0.052795
2216.841489	0.362064	-28.906250	169.628906
2216.843491	0.676094	-28.906250	169.628906
2216.845491	0.979234	-28.906250	169.628906
2216.847491	1.226241	-28.906250	169.628906
2216.851490	1.252244	-28.906250	169.628906
2216.853491	1.250509	13.755599	0.055479
2217.891558	0.793821	-108.007812	-262.792969
2217.893559	1.091970	-108.007812	-262.792969
2217.895560	1.255781	-108.007812	-262.792969
2217.897559	1.254897	13.803864	0.048038
2218.919637	0.514935	-23.925781	169.628906
2218.921638	0.823803	-23.925781	169.628906
2218.923639	1.119648	-23.925781	169.628906
2218.925639	1.256991	-23.925781	169.628906
2218.927638	1.253976	13.793735	0.054494
2219.969692	0.665284	-108.886719	-263.476562
2219.971695	0.968927	-108.886719	-263.476562
2219.973694	1.221587	-108.886719	-263.476562
2219.975694	1.255938	-108.886719	-263.476562
2219.977694	1.252802	13.780822	0.610711
2220.997741	0.290537	-18.945312	169.433594
2220.999742	0.608475	-18.945312	169.433594
2221.001742	0.914470	-18.945312	169.433594
2221.003740	1.190457	-18.945312	169.433594
2221.005743	1.256165	-18.945312	169.433594
2221.007741	1.252554	13.778092	0.054934
2222.045801	0.334180	-109.375000	-264.257812
2222.047804	0.649692	-109.375000	-264.257812
2222.049802	0.954098	-109.375000	-264.257812
2222.051803	1.214067	-109.375000	-264.257812
2222.053803	1.256037	-109.375000	-264.257812
2222.057802	1.250905	13.759952	0.050253
2223.077866	0.637686	-14.160156	168.164062
2223.079868	0.942493	-14.160156	168.164062
2223.081869	1.207529	-14.160156	168.164062
2223.085866	1.252317	-14.160156	168.164062
2223.087869	1.250436	13.754793	0.051409
2224.127900	0.584790	-109.375000	-265.039062
2224.129902	0.891925	-109.375000	-265.039062
2224.131902	1.175124	-109.375000	-265.039062
2224.133901	1.257311	-109.375000	-265.039062
2224.135903	1.253462	13.788080	0.048546
2225.155869	0.564841	-20.117187	168.164062
2225.157870	0.872667	-20.117187	168.164062
2225.159870	1.160723	-20.117187	168.164062
2225.161870	1.257667	-20.117187	168.164062
2225.163869	1.253787	13.791660	0.108591
2226.203937	0.526514	-108.789062	-264.453125
2226.205940	0.835156	-108.789062	-264.453125
2226.207939	1.129676	-108.789062	-264.453125
2226.209938	1.257067	-108.789062	-264.453125
2226.211940	1.253796	13.791758	0.054841
2227.238035	0.821471	-24.414062	168.164062
2227.240037	1.117521	-24.414062	168.164062
2227.242036	1.258307	-24.414062	168.164062
2227.246035	1.253190	13.785093	0.055122
2228.282095	0.637970	-110.253906	-262.890625
2228.284098	0.942729	-110.253906	-262.890625
2228.286097	1.207761	-110.253906	-262.890625
2228.288098	1.255685	-110.253906	-262.890625
2228.290097	1.252270	13.774973	0.474952
2229.316202	0.737244	-39.062500	168.750000
2229.318204	0.749879	-39.062500	168.750000
2229.320205	1.246687	-39.062500	168.750000
2229.322204	1.254968	-39.062500	168.750000
2229.324205	1.252277	13.775052	0.051032
2230.358793	0.361797	-108.496094	-262.402344
2230.360795	0.675859	-108.496094	-262.402344
2230.362797	0.979161	-108.496094	-262.402344
2230.364794	1.226085	-108.496094	-262.402344
2230.366797	1.255234	-108.496094	-262.402344
2230.368796	1.252240	13.774635	0.055341
2231.398888	0.794150	-40.625000	167.089844
2231.400890	1.092132	-40.625000	167.089844
2231.402891	1.255650	-40.625000	167.089844
2231.404891	1.254675	13.801427	0.044432
2232.437421	0.546337	-107.910156	-261.230469
2232.439424	0.854535	-107.910156	-261.230469
2232.441425	1.146086	-107.910156	-261.230469
2232.443424	1.257223	-107.910156	-261.230469
2232.445424	1.253647	13.790118	0.054348
2233.473469	0.305144	-43.066406	165.136719
2233.475473	0.622060	-43.066406	165.136719
2233.477474	0.927592	-43.066406	165.136719
2233.479471	1.198828	-43.066406	165.136719
2233.485470	1.250584	-43.066406	165.136719
2233.487475	1.249062	13.739683	0.054070
2234.513535	0.378873	-109.375000	-258.984375
2234.515537	0.691981	-109.375000	-258.984375
2234.517537	0.994387	-109.375000	-258.984375
2234.519536	1.232501	-109.375000	-258.984375
2234.521537	1.254934	-109.375000	-258.984375
2234.523538	1.251985	13.771835	0.056757
2235.555589	0.481749	-49.316406	162.988281
2235.557591	0.791297	-49.316406	162.988281
2235.559592	1.089465	-49.316406	162.988281
2235.561592	1.254666	-49.316406	162.988281
2235.563590	1.253847	13.792315	0.050401
2236.591614	0.559675	-108.886719	-256.445312
2236.593616	0.867875	-108.886719	-256.445312
2236.595616	1.156975	-108.886719	-256.445312
2236.597618	1.257947	-108.886719	-256.445312
2236.599617	1.254164	13.795798	0.080408
2237.635661	0.691570	-59.375000	161.621094
2237.637664	0.994185	-59.375000	161.621094
2237.639664	1.232590	-59.375000	161.621094
2237.641664	1.255314	-59.375000	161.621094
2237.643666	1.252277	13.775043	0.050088
2238.668218	0.428378	-109.472656	-253.613281
2238.670220	0.739600	-109.472656	-253.613281
2238.672221	1.040181	-109.472656	-253.613281
2238.674220	1.247023	-109.472656	-253.613281
2238.676221	1.254621	-109.472656	-253.613281
2238.678219	1.251860	13.770462	0.059861
2239.712764	0.519074	-49.511719	159.082031
2239.714767	0.827950	-49.511719	159.082031
2239.716767	1.123247	-49.511719	159.082031
2239.718768	1.257508	-49.511719	159.082031
2239.720770	1.254554	13.800097	0.045148
2240.748816	0.402065	-110.058594	-250.976562
2240.750817	0.714326	-110.058594	-250.976562
2240.752817	1.015942	-110.058594	-250.976562
2240.754817	1.241221	-110.058594	-250.976562
2240.756818	1.256402	-110.058594	-250.976562
2240.758817	1.253410	13.787513	0.057773
2241.790856	0.254205	-66.503906	157.226562
2241.792860	0.574449	-66.503906	157.226562
2241.794859	0.881977	-66.503906	157.226562
2241.800856	1.256864	-66.503906	157.226562
2241.802858	1.254495	-66.503906	157.226562
2241.804858	1.253003	13.783028	0.052843
2242.827904	0.540431	-110.546875	-248.242187
2242.829904	0.848998	-110.546875	-248.242187
2242.833904	1.146141	-110.546875	-248.242187
2242.835906	1.254292	-110.546875	-248.242187
2242.837906	1.252014	13.772155	0.056703
2243.869898	0.590503	-68.652344	155.468750
2243.871898	0.897228	-68.652344	155.468750
2243.873899	1.179185	-68.652344	155.468750
2243.875899	1.258106	-68.652344	155.468750
2243.877900	1.254220	13.796419	0.231602
2244.905993	0.318276	-109.863281	-245.898437
2244.907994	0.634758	-109.863281	-245.898437
2244.909994	0.939690	-109.863281	-245.898437
2244.911994	1.205978	-109.863281	-245.898437
2244.913994	1.208727	-109.863281	-245.898437
2244.915994	1.252505	13.777552	0.055706
2245.946041	0.388946	-62.500000	153.710937
2245.948042	0.701734	-62.500000	153.710937
2245.950041	1.003865	-62.500000	153.710937
2245.952042	1.235992	-62.500000	153.710937
2245.954042	1.254753	-62.500000	153.710937
2245.956041	1.251886	13.770744	0.052057
2246.988114	0.732830	-112.304687	-243.554687
2246.990117	1.033640	-112.304687	-243.554687
2246.992117	1.245711	-112.304687	-243.554687
2246.996114	1.252393	-112.304687	-243.554687
2246.998118	1.250706	13.757771	0.053108
2248.022698	0.387713	-63.867187	153.125000
2248.024698	0.700647	-63.867187	153.125000
2248.026700	1.002808	-63.867187	153.125000
2248.028701	1.236092	-63.867187	153.125000
2248.030700	1.255548	-63.867187	153.125000
2248.032699	1.252535	13.777880	0.053283
2249.067599	0.372950	-111.914062	-242.675781
2249.069599	0.686379	-111.914062	-242.675781
2249.071602	0.989143	-111.914062	-242.675781
2249.073601	1.230413	-111.914062	-242.675781
2249.075601	1.255123	-111.914062	-242.675781
2249.077601	1.252153	13.773687	0.050393
2250.099634	0.389351	-48.144531	151.464844
2250.101636	0.702089	-48.144531	151.464844
2250.103636	1.004206	-48.144531	151.464844
2250.105635	1.236480	-48.144531	151.464844
2250.107637	1.255361	-48.144531	151.464844
2250.109636	1.252350	13.775849	0.053354
2251.145647	0.346828	-113.964844	-240.429687
2251.147648	0.661808	-113.964844	-240.429687
2251.149650	0.965538	-113.964844	-240.429687
2251.151649	1.219590	-113.964844	-240.429687
2251.153648	1.255158	-113.964844	-240.429687
2251.155648	1.252073	13.772800	0.049258
2252.181681	0.787212	-57.617187	151.074219
2252.183689	0.811037	-57.617187	151.074219
2252.185690	1.254497	-57.617187	151.074219
2252.187688	1.253905	-57.617187	151.074219
2252.189688	1.251447	13.765915	0.052000
2253.226274	0.527303	-112.988281	-240.039062
2253.228276	0.835972	-112.988281	-240.039062
2253.230275	1.130418	-112.988281	-240.039062
2253.232275	1.257409	-112.988281	-240.039062
2253.234277	1.254147	13.795612	0.052692
2254.256231	0.537384	-47.753906	150.488281
2254.258233	0.846038	-47.753906	150.488281
2254.260234	1.139064	-47.753906	150.488281
2254.262233	1.257617	-47.753906	150.488281
2254.264232	1.254097	13.795073	0.056890
2255.306279	2.459444	-113.183594	-239.746094
2255.308280	0.834840	-113.183594	-239.746094
2255.310283	1.129463	-113.183594	-239.746094
2255.314279	1.254689	-113.183594	-239.746094
2255.316280	1.252440	13.776842	0.052537
2256.334293	0.675657	-60.058594	151.074219
2256.336296	0.978809	-60.058594	151.074219
2256.338297	1.226171	-60.058594	151.074219
2256.340296	1.255626	-60.058594	151.074219
2256.342295	1.252602	13.778625	0.657924
2257.384302	0.377777	-114.257812	-239.355469
2257.386302	0.691259	-114.257812	-239.355469
2257.388303	0.993756	-114.257812	-239.355469
2257.390303	1.232391	-114.257812	-239.355469
2257.392304	1.255108	-114.257812	-239.355469
2257.394305	1.252208	13.774290	0.047980
2258.412864	0.530478	-47.558594	149.902344
2258.414865	0.839111	-47.558594	149.902344
2258.416863	1.133106	-47.558594	149.902344
2258.418863	1.257750	-47.558594	149.902344
2258.420865	1.254277	13.797049	0.054481
2259.462915	0.274060	-113.574219	-239.941406
2259.464914	0.592821	-113.574219	-239.941406
2259.466916	0.899694	-113.574219	-239.941406
2259.468915	1.180735	-113.574219	-239.941406
2259.470915	1.257477	-113.574219	-239.941406
2259.472915	1.253708	13.790792	0.048532
2260.493010	0.792403	-38.183594	149.511719
2260.495014	1.090499	-38.183594	149.511719
2260.497015	1.255021	-38.183594	149.511719
2260.499016	1.254057	13.794629	0.053797
2261.543061	0.504968	-114.062500	-240.722656
2261.545062	0.814229	-114.062500	-240.722656
2261.547061	1.110808	-114.062500	-240.722656
2261.549063	1.255942	-114.062500	-240.722656
2261.551062	1.253443	13.787876	0.049747
2262.571110	0.815028	-33.984375	149.023437
2262.573111	1.111700	-33.984375	149.023437
2262.575109	1.256978	-33.984375	149.023437
2262.577110	1.254588	13.800469	0.052177
2263.619169	0.332724	-113.476562	-241.894531
2263.621171	0.344839	-113.476562	-241.894531
2263.623169	0.952516	-113.476562	-241.894531
2263.625171	1.212968	-113.476562	-241.894531
2263.627170	1.255198	-113.476562	-241.894531
2263.629170	1.251890	13.770789	0.051380
2264.651259	0.559340	-40.039062	149.414062
2264.653260	0.867552	-40.039062	149.414062
2264.655260	1.156759	-40.039062	149.414062
2264.657259	1.258119	-40.039062	149.414062
2264.659260	1.254310	13.797411	0.051285
2265.699342	0.402402	-112.500000	-242.968750
2265.701343	0.714782	-112.500000	-242.968750
2265.703345	1.016218	-112.500000	-242.968750
2265.707342	1.254913	-112.500000	-242.968750
2265.709344	1.252063	-112.500000	-242.968750
2265.711344	1.250404	13.754448	0.050024
2266.727322	0.341685	-45.312500	150.097656
2266.729324	0.656748	-45.312500	150.097656
2266.731324	0.960804	-45.312500	150.097656
2266.733324	1.217644	-45.312500	150.097656
2266.735324	1.255997	-45.312500	150.097656
2266.739322	1.250788	13.758666	0.057123
2267.775393	0.382411	-111.523437	-244.140625
2267.777395	0.695409	-111.523437	-244.140625
2267.779395	0.997754	-111.523437	-244.140625
2267.781395	1.233574	-111.523437	-244.140625
2267.783395	1.254706	-111.523437	-244.140625
2267.785395	1.251867	13.770533	0.054759
2268.807432	0.360672	-47.851562	150.585937
2268.809435	0.674494	-47.851562	150.585937
2268.811434	0.977664	-47.851562	150.585937
2268.813435	1.225699	-47.851562	150.585937
2268.815434	1.255546	-47.851562	150.585937
2268.817435	1.252481	13.777295	0.052612
2269.853497	0.490315	-111.035156	-246.386719
2269.855499	0.503841	-111.035156	-246.386719
2269.857498	1.097476	-111.035156	-246.386719
2269.859502	1.256197	-111.035156	-246.386719
2269.861510	1.254736	13.802101	0.052469
2270.887559	0.462124	-55.761719	151.757812
2270.889561	0.772396	-55.761719	151.757812
2270.891561	1.071296	-55.761719	151.757812
2270.893562	1.252643	-55.761719	151.757812
2270.895562	1.253862	-55.761719	151.757812
2270.897560	1.251412	13.765533	0.054910
2271.931555	0.627127	-111.621094	-247.949219
2271.933561	0.932424	-111.621094	-247.949219
2271.935561	1.202172	-111.621094	-247.949219
2271.937560	1.256234	-111.621094	-247.949219
2271.939561	1.252698	13.779678	0.052820
2272.970143	0.506150	-59.863281	152.929687
2272.972145	0.815309	-59.863281	152.929687
2272.976145	1.256882	-59.863281	152.929687
2272.978146	1.254433	-59.863281	152.929687
2272.980144	1.252051	13.772562	0.047179
2274.007138	1.427896	-111.718750	-250.585937
2274.009141	0.689253	-111.718750	-250.585937
2274.011140	0.991863	-111.718750	-250.585937
2274.013140	1.231405	-111.718750	-250.585937
2274.015141	1.255069	-111.718750	-250.585937
2274.017140	1.252049	13.772536	0.059527
2275.048131	0.631075	-45.117187	153.417969
2275.050133	0.936329	-45.117187	153.417969
2275.052134	1.204047	-45.117187	153.417969
2275.054134	1.256216	-45.117187	153.417969
2275.056134	1.252795	13.780743	0.051652
2276.088217	0.624433	-109.765625	-253.613281
2276.090217	0.929831	-109.765625	-253.613281
2276.092217	1.200373	-109.765625	-253.613281
2276.094218	1.256718	-109.765625	-253.613281
2276.096216	1.253133	13.784464	0.398315
2277.128819	0.816804	-42.382812	154.882812
2277.130820	1.113404	-42.382812	154.882812
2277.132821	1.259051	-42.382812	154.882812
2277.134820	1.256901	13.825912	0.048470
2278.164895	0.506477	-109.472656	-256.347656
2278.166896	0.815453	-109.472656	-256.347656
2278.168895	1.112061	-109.472656	-256.347656
2278.170895	1.256844	-109.472656	-256.347656
2278.172895	1.254404	13.798439	0.056281
2279.205518	0.423868	-41.894531	156.738281
2279.207518	0.735382	-41.894531	156.738281
2279.209520	1.035996	-41.894531	156.738281
2279.211518	1.246002	-41.894531	156.738281
2279.213520	1.254672	-41.894531	156.738281
2279.215518	1.251924	13.771162	0.049393
2280.241549	0.424264	-108.105469	-260.156250
2280.243552	0.735664	-108.105469	-260.156250
2280.245550	1.036166	-108.105469	-260.156250
2280.247550	1.245799	-108.105469	-260.156250
2280.249550	1.254187	-108.105469	-260.156250
2280.253550	1.249662	13.746285	0.057652
2281.283583	0.442313	-50.292969	159.179687
2281.285584	0.753103	-50.292969	159.179687
2281.287585	1.052997	-50.292969	159.179687
2281.289585	1.249765	-50.292969	159.179687
2281.291585	1.254286	-50.292969	159.179687
2281.293583	1.251724	13.768964	0.052226
2282.324168	0.672873	-106.835937	-263.085937
2282.326172	0.976168	-106.835937	-263.085937
2282.328170	1.224838	-106.835937	-263.085937
2282.330175	1.255345	-106.835937	-263.085937
2282.332179	1.252333	13.775663	0.636433
2283.360249	0.358977	-43.261719	160.546875
2283.362251	0.673332	-43.261719	160.546875
2283.364251	0.976550	-43.261719	160.546875
2283.366250	1.224724	-43.261719	160.546875
2283.368250	1.254848	-43.261719	160.546875
2283.370250	1.251972	13.771693	0.049847
2284.400314	0.306552	-108.593750	-265.136719
2284.402316	0.623321	-108.593750	-265.136719
2284.404320	0.928739	-108.593750	-265.136719
2284.406320	1.199640	-108.593750	-265.136719
2284.408322	1.256101	-108.593750	-265.136719
2284.410323	1.252536	13.777897	0.058100
2285.441377	0.535608	-48.437500	161.816406
2285.443378	0.844314	-48.437500	161.816406
2285.445378	1.137486	-48.437500	161.816406
2285.447378	1.257944	-48.437500	161.816406
2285.449379	1.254373	13.798103	0.049485
2286.480367	0.717054	-109.667969	-266.992187
2286.482371	1.018437	-109.667969	-266.992187
2286.484369	1.241008	-109.667969	-266.992187
2286.486369	1.254794	-109.667969	-266.992187
2286.488369	1.252000	13.772003	0.055722
2287.517342	0.425081	-41.503906	162.597656
2287.519344	0.736098	-41.503906	162.597656
2287.521343	1.036770	-41.503906	162.597656
2287.523343	1.044035	-41.503906	162.597656
2287.525344	1.254606	-41.503906	162.597656
2287.527345	1.251889	13.770781	0.050183
2288.560266	0.381163	-109.277344	-268.847656
2288.562268	0.694168	-109.277344	-268.847656
2288.564269	0.996469	-109.277344	-268.847656
2288.566269	1.233459	-109.277344	-268.847656
2288.568269	1.255024	-109.277344	-268.847656
2288.570268	1.252257	13.774831	0.051009
2289.596273	0.697948	-37.207031	163.378906
2289.598274	1.000263	-37.207031	163.378906
2289.600274	1.234886	-37.207031	163.378906
2289.602275	1.255192	-37.207031	163.378906
2289.604275	1.252319	13.775505	0.050683
2290.640823	0.864122	-107.324219	-269.531250
2290.642827	1.153979	-107.324219	-269.531250
2290.644827	1.258401	-107.324219	-269.531250
2290.646828	1.254657	13.801231	0.051314
2291.670849	0.568618	-25.585937	163.769531
2291.672852	0.876548	-25.585937	163.769531
2291.674852	1.163695	-25.585937	163.769531
2291.678851	1.253967	-25.585937	163.769531
2291.680852	1.251862	13.770480	0.127317
