time (s)	coil I (A)	last det (V)	int current (uC)
6518.508649	0.416370	-184.472656	-131.835937
6518.510651	0.729208	-184.472656	-131.835937
6518.512653	1.031692	-184.472656	-131.835937
6518.514653	1.247104	-184.472656	-131.835937
6518.516655	1.257601	-184.472656	-131.835937
6518.518654	1.254726	13.801985	0.103537
6519.490689	0.419069	-183.691406	188.671875
6519.492690	0.731764	-183.691406	188.671875
6519.494692	1.034191	-183.691406	188.671875
6519.496690	1.247942	-183.691406	188.671875
6519.498690	1.257867	-183.691406	188.671875
6519.500692	1.254913	13.804041	0.114108
6520.592768	0.856985	-180.761719	-133.496094
6520.594771	1.149735	-180.761719	-133.496094
6520.596772	1.259999	-180.761719	-133.496094
6520.598771	1.256576	13.822332	0.111999
6521.573360	0.872707	-191.308594	187.304687
6521.575363	1.162399	-191.308594	187.304687
6521.579360	1.260346	-191.308594	187.304687
6521.581361	1.254536	13.799893	0.161901
6522.669410	0.535557	-177.929687	-133.886719
6522.671413	0.845523	-177.929687	-133.886719
6522.673411	1.140119	-177.929687	-133.886719
6522.675412	1.259950	-177.929687	-133.886719
6522.677413	1.256630	13.822927	0.101953
6523.655445	0.522619	-207.226562	187.207031
6523.657445	0.832684	-207.226562	187.207031
6523.659445	1.128922	-207.226562	187.207031
6523.661446	1.260447	-207.226562	187.207031
6523.665445	1.257501	13.832515	0.110041
6524.748466	0.507898	-176.855469	-134.472656
6524.752466	1.116289	-176.855469	-134.472656
6524.754469	1.259003	-176.855469	-134.472656
6524.756473	1.256529	13.821818	0.115100
6525.738567	0.649748	-197.949219	186.914062
6525.740567	0.955630	-197.949219	186.914062
6525.742566	1.216476	-197.949219	186.914062
6525.744567	1.258480	-197.949219	186.914062
6525.748567	1.253139	13.784527	0.571196
6526.827572	0.320907	-174.804687	-134.375000
6526.829571	0.637682	-174.804687	-134.375000
6526.831572	0.943994	-174.804687	-134.375000
6526.833572	1.210264	-174.804687	-134.375000
6526.835572	1.258711	-174.804687	-134.375000
6526.837572	1.255264	13.807904	0.106528
6527.819565	0.446644	-177.050781	188.085937
6527.821570	0.758417	-177.050781	188.085937
6527.823568	1.059526	-177.050781	188.085937
6527.825569	1.253840	-177.050781	188.085937
6527.827567	1.258036	-177.050781	188.085937
6527.829568	1.257881	13.836690	0.104114
6528.907539	0.276017	-172.070312	-135.058594
6528.909540	0.595199	-172.070312	-135.058594
6528.911540	0.903267	-172.070312	-135.058594
6528.913541	1.184798	-172.070312	-135.058594
6528.915540	1.259433	-172.070312	-135.058594
6528.917540	1.255769	13.813461	0.114080
6529.897578	0.574534	-160.839844	187.988281
6529.899578	0.883506	-160.839844	187.988281
6529.901579	1.170632	-160.839844	187.988281
6529.903578	1.260574	-160.839844	187.988281
6529.905577	1.257029	13.827322	0.111280
6530.989569	0.558776	-172.265625	-135.546875
6530.991570	0.868209	-172.265625	-135.546875
6530.993570	1.158876	-172.265625	-135.546875
6530.995571	1.260633	-172.265625	-135.546875
6530.997571	1.257066	13.827730	0.120415
6531.979601	0.369992	-149.316406	188.281250
6531.981605	0.684295	-149.316406	188.281250
6531.985602	1.232155	-149.316406	188.281250
6531.987603	1.257882	-149.316406	188.281250
6531.989603	1.254665	13.801311	0.097089
6533.071617	0.517744	-170.410156	-135.546875
6533.075617	1.124762	-170.410156	-135.546875
6533.077619	1.259327	-170.410156	-135.546875
6533.079619	1.256585	13.822430	0.107069
6534.057593	0.578182	-150.292969	187.304687
6534.059593	0.886789	-150.292969	187.304687
6534.063593	1.260227	-150.292969	187.304687
6534.065592	1.256587	-150.292969	187.304687
6534.067593	1.254233	13.796562	0.220174
6535.151670	0.805311	-170.605469	-135.351562
6535.153670	1.104099	-170.605469	-135.351562
6535.155670	1.259179	-170.605469	-135.351562
6535.157670	1.259422	13.853642	0.104128
6536.139655	0.460570	-145.605469	187.695312
6536.141656	0.771879	-145.605469	187.695312
6536.143656	1.072357	-145.605469	187.695312
6536.145656	1.254846	-145.605469	187.695312
6536.147656	1.255547	-145.605469	187.695312
6536.149656	1.253691	13.790597	0.097649
6537.231667	0.365775	-170.507812	-135.156250
6537.233669	0.680335	-170.507812	-135.156250
6537.235668	0.984860	-170.507812	-135.156250
6537.237670	1.230582	-170.507812	-135.156250
6537.239669	1.258111	-170.507812	-135.156250
6537.241667	1.254937	13.804306	0.105287
6538.215713	0.444832	-160.449219	187.011719
6538.217716	0.756616	-160.449219	187.011719
6538.219717	1.057858	-160.449219	187.011719
6538.221716	1.255425	-160.449219	187.011719
6538.223715	1.260187	-160.449219	187.011719
6538.225717	1.257668	13.834350	0.102367
6539.310348	0.359142	-172.265625	-134.863281
6539.312348	0.673954	-172.265625	-134.863281
6539.314349	0.978765	-172.265625	-134.863281
6539.316348	1.227723	-172.265625	-134.863281
6539.318348	1.257879	-172.265625	-134.863281
6539.320348	1.254676	13.801435	0.101386
6540.294398	0.439266	-156.542969	187.402344
6540.296401	0.751129	-156.542969	187.402344
6540.298400	1.052481	-156.542969	187.402344
6540.300401	1.251500	-156.542969	187.402344
6540.302400	1.256744	-156.542969	187.402344
6540.304401	1.253862	13.792485	0.094375
6541.395402	0.710671	-172.070312	-135.253906
6541.397402	1.013777	-172.070312	-135.253906
6541.399404	1.240996	-172.070312	-135.253906
6541.401403	1.257100	-172.070312	-135.253906
6541.403403	1.254091	13.795001	0.098518
6542.375969	0.643186	-109.277344	187.792969
6542.377971	0.949153	-109.277344	187.792969
6542.381969	1.258195	-109.277344	187.792969
6542.383972	1.254923	-109.277344	187.792969
6542.385971	1.253074	13.783817	0.092717
6543.475959	0.678549	-170.703125	-135.058594
6543.477961	0.983023	-170.703125	-135.058594
6543.479960	1.229547	-170.703125	-135.058594
6543.481960	1.257787	-170.703125	-135.058594
6543.483960	1.254553	13.800080	0.100320
6544.454012	0.778252	-129.882812	188.574219
6544.456015	1.078571	-129.882812	188.574219
6544.458023	1.256718	-129.882812	188.574219
6544.460022	1.257537	-129.882812	188.574219
6544.462020	1.254843	13.803270	0.092810
6545.556129	0.823101	-171.289062	-134.765625
6545.558130	1.120361	-171.289062	-134.765625
6545.560131	1.259839	-171.289062	-134.765625
6545.562130	1.257302	13.830317	0.102194
6546.528642	0.378540	-132.324219	188.671875
6546.530643	0.692469	-132.324219	188.671875
6546.532643	0.996248	-132.324219	188.671875
6546.534643	1.234672	-132.324219	188.671875
6546.536643	1.257207	-132.324219	188.671875
6546.538643	1.254041	13.794452	0.092697
6547.635241	0.322446	-168.359375	-135.839844
6547.637240	0.639120	-168.359375	-135.839844
6547.639242	0.945284	-168.359375	-135.839844
6547.641243	1.210673	-168.359375	-135.839844
6547.643242	1.258190	-168.359375	-135.839844
6547.645241	1.254699	13.801683	0.102132
6548.609213	0.260194	-112.207031	190.136719
6548.611214	0.580014	-112.207031	190.136719
6548.613213	0.888553	-112.207031	190.136719
6548.615215	1.174230	-112.207031	190.136719
6548.619211	1.256500	-112.207031	190.136719
6548.621213	1.254207	13.796277	0.088754
6549.715253	0.527432	-170.117187	-135.937500
6549.717255	0.837380	-170.117187	-135.937500
6549.719255	1.133089	-170.117187	-135.937500
6549.721253	1.260490	-170.117187	-135.937500
6549.723254	1.257493	13.832427	0.099501
6550.689828	0.725351	-116.796875	191.406250
6550.691831	1.027816	-116.796875	191.406250
6550.693832	1.245512	-116.796875	191.406250
6550.695831	1.257145	-116.796875	191.406250
6550.697832	1.254139	13.795525	0.083858
6551.796425	0.431906	-166.015625	-137.304687
6551.798428	0.743988	-166.015625	-137.304687
6551.800427	1.045720	-166.015625	-137.304687
6551.802428	1.250209	-166.015625	-137.304687
6551.804427	1.257115	-166.015625	-137.304687
6551.806428	1.254277	13.797049	0.095845
6552.768460	0.391670	-82.812500	192.675781
6552.770465	0.705056	-82.812500	192.675781
6552.772463	1.008396	-82.812500	192.675781
6552.776462	1.257041	-82.812500	192.675781
6552.778462	1.254153	-82.812500	192.675781
6552.780463	1.252444	13.776887	0.085211
6553.876559	0.573221	-167.578125	-138.867187
6553.878561	0.882114	-167.578125	-138.867187
6553.882559	1.260357	-167.578125	-138.867187
6553.884561	1.256760	-167.578125	-138.867187
6553.886561	1.254425	13.798679	0.098906
6554.847052	0.371609	-99.902344	194.042969
6554.849054	0.685778	-99.902344	194.042969
6554.851054	0.989974	-99.902344	194.042969
6554.853054	1.232263	-99.902344	194.042969
6554.855056	1.257388	-99.902344	194.042969
6554.857055	1.254280	13.797075	0.083555
6555.957104	0.617729	-161.230469	-141.503906
6555.959106	0.924757	-161.230469	-141.503906
6555.961107	1.198881	-161.230469	-141.503906
6555.963105	1.259137	-161.230469	-141.503906
6555.965105	1.255642	13.812061	0.399434
6556.927116	0.501864	-68.847656	195.507812
6556.929114	0.812152	-68.847656	195.507812
6556.931116	1.110383	-68.847656	195.507812
6556.935113	1.257005	-68.847656	195.507812
6556.937116	1.254444	13.798882	0.085307
6558.037199	1.061937	-159.863281	-143.457031
6558.039199	1.254195	-159.863281	-143.457031
6558.041199	1.257846	-159.863281	-143.457031
6558.043200	1.255057	13.805627	0.098284
6559.007258	0.404700	-69.824219	196.777344
6559.009261	0.717552	-69.824219	196.777344
6559.011259	1.020361	-69.824219	196.777344
6559.013259	1.243221	-69.824219	196.777344
6559.015260	1.257023	-69.824219	196.777344
6559.017260	1.254035	13.794390	0.080821
6560.115244	0.566792	-158.496094	-145.117187
6560.117246	0.875970	-158.496094	-145.117187
6560.119246	1.164662	-158.496094	-145.117187
6560.121246	1.259869	-158.496094	-145.117187
6560.123246	1.256191	13.818105	0.092566
6561.085272	0.285365	-83.496094	198.242187
6561.087273	0.603861	-83.496094	198.242187
6561.089273	0.911348	-83.496094	198.242187
6561.091273	1.189992	-83.496094	198.242187
6561.093273	1.259048	-83.496094	198.242187
6561.095274	1.255437	13.809802	0.082312
6562.191320	0.391060	-157.324219	-146.386719
6562.193321	0.704490	-157.324219	-146.386719
6562.195321	1.007909	-157.324219	-146.386719
6562.197322	1.239107	-157.324219	-146.386719
6562.199321	1.257182	-157.324219	-146.386719
6562.201320	1.254117	13.795284	0.099028
6563.167364	0.499678	-82.226562	198.828125
6563.169365	0.809990	-82.226562	198.828125
6563.171366	1.108324	-82.226562	198.828125
6563.173365	1.258889	-82.226562	198.828125
6563.175369	1.256879	13.825674	0.080105
6564.271446	0.771821	-160.742187	-147.656250
6564.273447	1.072336	-160.742187	-147.656250
6564.275449	1.255125	-160.742187	-147.656250
6564.277448	1.256952	-160.742187	-147.656250
6564.279450	1.254159	13.795746	0.092312
6565.247993	0.638537	-99.609375	199.511719
6565.249995	0.944660	-99.609375	199.511719
6565.251994	1.210223	-99.609375	199.511719
6565.253996	1.258084	-99.609375	199.511719
6565.255996	1.254529	13.799814	0.078196
6566.349031	0.435669	-156.054687	-148.339844
6566.351032	0.747820	-156.054687	-148.339844
6566.353032	1.049309	-156.054687	-148.339844
6566.355032	1.250964	-156.054687	-148.339844
6566.357033	1.256850	-156.054687	-148.339844
6566.359034	1.254040	13.794435	0.093941
6567.327007	0.524283	-84.082031	200.000000
6567.329008	0.834134	-84.082031	200.000000
6567.331009	1.130000	-84.082031	200.000000
6567.333008	1.259088	-84.082031	200.000000
6567.337005	1.253598	13.789577	0.079162
6568.429614	0.725210	-153.515625	-148.535156
6568.431617	1.027711	-153.515625	-148.535156
6568.433615	1.245770	-153.515625	-148.535156
6568.435617	1.257636	-153.515625	-148.535156
6568.437615	1.254769	13.802464	0.089690
6569.405682	0.516027	-64.257812	200.292969
6569.407683	0.825948	-64.257812	200.292969
6569.409684	1.122713	-64.257812	200.292969
6569.411683	1.258865	-64.257812	200.292969
6569.413685	1.256101	13.817112	0.076438
6570.505676	0.632129	-158.203125	-148.925781
6570.507679	0.938518	-158.203125	-148.925781
6570.509679	0.948853	-158.203125	-148.925781
6570.511678	1.258601	-158.203125	-148.925781
6570.513678	1.255062	13.805680	0.094881
6571.486713	0.557533	-51.171875	200.097656
6571.488715	0.866647	-51.171875	200.097656
6571.490715	1.157200	-51.171875	200.097656
6571.492715	1.259409	-51.171875	200.097656
6571.494714	1.255831	13.814144	0.086865
6572.584721	0.360124	-156.152344	-149.316406
6572.586723	0.674777	-156.152344	-149.316406
6572.590722	1.227707	-156.152344	-149.316406
6572.592724	1.257347	-156.152344	-149.316406
6572.594724	1.254170	13.795870	0.088082
6573.565283	0.695003	-81.640625	200.195312
6573.567286	0.998651	-81.640625	200.195312
6573.569285	1.235952	-81.640625	200.195312
6573.571286	1.257674	-81.640625	200.195312
6573.573287	1.254617	13.800788	0.074293
6574.661824	0.261975	-157.812500	-149.511719
6574.663827	0.581654	-157.812500	-149.511719
6574.665827	0.890193	-157.812500	-149.511719
6574.667826	1.175309	-157.812500	-149.511719
6574.669826	1.259350	-157.812500	-149.511719
6574.671825	1.255621	13.811831	0.095238
6575.643872	0.594650	-47.460937	199.804687
6575.645875	0.902478	-47.460937	199.804687
6575.649873	1.258716	-47.460937	199.804687
6575.651881	1.254927	-47.460937	199.804687
6575.655883	1.251722	13.768938	0.274585
6576.743876	0.788702	-154.687500	-149.316406
6576.745885	1.088369	-154.687500	-149.316406
6576.747881	1.256785	-154.687500	-149.316406
6576.749882	1.256285	13.819133	0.087191
6577.724440	0.723564	-39.746094	199.609375
6577.726442	1.025976	-39.746094	199.609375
6577.730440	1.256491	-39.746094	199.609375
6577.734440	1.251950	-39.746094	199.609375
6577.738440	1.249761	13.747367	0.070565
6578.822520	0.537840	-152.246094	-148.632812
6578.824521	0.847423	-152.246094	-148.632812
6578.826523	1.141561	-152.246094	-148.632812
6578.828522	1.259760	-152.246094	-148.632812
6578.830522	1.256357	13.819922	0.088255
6579.798566	0.322760	-57.812500	199.609375
6579.800567	0.638978	-57.812500	199.609375
6579.802570	0.945013	-57.812500	199.609375
6579.804568	1.210260	-57.812500	199.609375
6579.806569	1.257772	-57.812500	199.609375
6579.810566	1.252411	13.776524	0.073619
6580.898593	0.277395	-154.199219	-148.242187
6580.900594	0.596139	-154.199219	-148.242187
6580.902592	0.904050	-154.199219	-148.242187
6580.904592	1.184894	-154.199219	-148.242187
6580.908590	1.254890	-154.199219	-148.242187
6580.910592	1.252908	13.781992	0.088609
6581.878567	0.606454	-59.472656	198.730469
6581.880568	0.913791	-59.472656	198.730469
6581.882569	1.191182	-59.472656	198.730469
6581.884568	1.257805	-59.472656	198.730469
6581.886569	1.254097	13.795063	0.071663
6582.979202	0.338511	-151.562500	-147.070312
6582.981206	0.654179	-151.562500	-147.070312
6582.983204	0.959558	-151.562500	-147.070312
6582.985206	1.218331	-151.562500	-147.070312
6582.987205	1.257840	-151.562500	-147.070312
6582.989205	1.254446	13.798910	0.087112
6583.957216	0.435837	-44.238281	198.242187
6583.959219	0.747654	-44.238281	198.242187
6583.961220	1.049130	-44.238281	198.242187
6583.963219	1.252216	-44.238281	198.242187
6583.965221	1.258785	-44.238281	198.242187
6583.967220	1.256070	13.816768	0.069378
6585.061271	0.858448	-153.808594	-146.093750
6585.063274	1.150668	-153.808594	-146.093750
6585.067274	1.256622	-153.808594	-146.093750
6585.069275	1.254245	13.796694	0.085019
6586.035791	3.068374	-49.609375	197.265625
6586.037793	0.584426	-49.609375	197.265625
6586.039794	1.166590	-49.609375	197.265625
6586.041794	1.259661	-49.609375	197.265625
6586.043793	1.255963	13.815589	0.149655
6587.136438	0.302524	-152.050781	-144.531250
6587.138440	0.620078	-152.050781	-144.531250
6587.140439	0.926897	-152.050781	-144.531250
6587.142441	1.199647	-152.050781	-144.531250
6587.144441	1.258042	-152.050781	-144.531250
6587.146442	1.254476	13.799238	0.086389
6588.112485	0.494064	-37.792969	195.410156
6588.116484	1.103202	-37.792969	195.410156
6588.118488	1.257334	-37.792969	195.410156
6588.120486	1.255637	13.812008	0.067258
6589.216554	0.363500	-155.371094	-143.652344
6589.218555	0.677866	-155.371094	-143.652344
6589.220555	0.982287	-155.371094	-143.652344
6589.222555	1.228962	-155.371094	-143.652344
6589.224555	1.257298	-155.371094	-143.652344
6589.226556	1.254192	13.796109	0.084826
6590.193548	0.621940	-38.085937	193.945312
6590.195551	0.928634	-38.085937	193.945312
6590.197550	1.200629	-38.085937	193.945312
6590.199549	1.257733	-38.085937	193.945312
6590.201551	1.254139	13.795534	0.065013
6591.296165	0.665524	-157.324219	-141.796875
6591.298167	0.970463	-157.324219	-141.796875
6591.300168	1.223438	-157.324219	-141.796875
6591.302168	1.257345	-157.324219	-141.796875
6591.304169	1.254035	13.794381	0.083841
6592.272221	0.772291	-42.773437	192.675781
6592.274222	1.072476	-42.773437	192.675781
6592.276222	1.254493	-42.773437	192.675781
6592.278224	1.256013	-42.773437	192.675781
6592.280222	1.253320	13.786520	0.064705
6593.372799	0.498053	-152.734375	-140.332031
6593.374799	0.808395	-152.734375	-140.332031
6593.376800	1.106982	-152.734375	-140.332031
6593.378799	1.258629	-152.734375	-140.332031
6593.380799	1.256723	13.823955	0.082467
6594.352817	1.189143	-30.761719	191.113281
6594.354819	1.258784	-30.761719	191.113281
6594.356820	1.255041	13.805449	0.312077
6595.453426	0.636452	-151.171875	-138.867187
6595.455429	0.942613	-151.171875	-138.867187
6595.457429	1.209132	-151.171875	-138.867187
6595.459428	1.258048	-151.171875	-138.867187
6595.461427	1.254673	13.801409	0.487482
6596.429474	0.503995	-11.914062	189.746094
6596.431476	0.814138	-11.914062	189.746094
6596.433477	1.112020	-11.914062	189.746094
6596.435477	1.259001	-11.914062	189.746094
6596.437476	1.256860	13.825461	0.061885
6597.533579	1.083109	-155.664062	-137.890625
6597.535581	1.256394	-155.664062	-137.890625
6597.537579	1.256168	-155.664062	-137.890625
6597.539580	1.253582	13.789401	0.079577
6598.506114	0.419374	-40.820312	189.160156
6598.508114	0.731623	-40.820312	189.160156
6598.510115	1.033599	-40.820312	189.160156
6598.514113	1.256183	-40.820312	189.160156
6598.516114	1.253306	-40.820312	189.160156
6598.518116	1.251739	13.769124	0.063510
6599.611150	1.139958	-150.683594	-136.816406
6599.613152	1.258989	-150.683594	-136.816406
6599.615151	1.255648	13.812132	0.077285
6600.587120	0.376198	-29.101562	188.378906
6600.589123	0.690017	-29.101562	188.378906
6600.591122	0.993811	-29.101562	188.378906
6600.593122	1.233496	-29.101562	188.378906
6600.595122	1.256738	-29.101562	188.378906
6600.597123	1.253679	13.790464	0.059564
6601.684056	0.494004	-155.175781	-137.109375
6601.686058	0.804465	-155.175781	-137.109375
6601.688058	1.103154	-155.175781	-137.109375
6601.690060	1.258217	-155.175781	-137.109375
6601.692058	1.256686	13.823547	0.077111
6602.664976	0.319013	3.613281	187.304687
6602.666979	0.635334	3.613281	187.304687
6602.668978	0.941484	3.613281	187.304687
6602.670980	1.208106	3.613281	187.304687
6602.672979	1.257200	3.613281	187.304687
6602.674978	1.253741	13.791155	0.061602
6603.761037	0.380595	-152.539062	-136.816406
6603.763038	0.694333	-152.539062	-136.816406
6603.765039	0.997981	-152.539062	-136.816406
6603.769038	1.256419	-152.539062	-136.816406
6603.771043	1.253406	-152.539062	-136.816406
6603.773048	1.251781	13.769593	0.076697
6604.747118	0.696248	-34.375000	187.109375
6604.749118	0.999588	-34.375000	187.109375
6604.751119	1.235612	-34.375000	187.109375
6604.753120	1.237989	-34.375000	187.109375
6604.755118	1.253417	13.787583	0.060066
6605.838122	0.279088	-151.171875	-136.621094
6605.840123	0.597715	-151.171875	-136.621094
6605.842122	0.905482	-151.171875	-136.621094
6605.844121	1.185707	-151.171875	-136.621094
6605.846122	1.258393	-151.171875	-136.621094
6605.848122	1.254568	13.800248	0.076178
6606.826096	0.658486	17.187500	186.230469
6606.828098	0.963699	17.187500	186.230469
6606.830097	1.219992	17.187500	186.230469
6606.832099	1.257004	17.187500	186.230469
6606.836095	1.252070	13.772765	0.059826
6607.916152	0.419180	-153.613281	-137.109375
6607.918154	0.731613	-153.613281	-137.109375
6607.920152	1.033581	-153.613281	-137.109375
6607.922154	1.246419	-153.613281	-137.109375
6607.924152	1.255968	-153.613281	-137.109375
6607.926154	1.253189	13.785076	0.073802
6608.904129	0.549751	2.734375	186.035156
6608.906131	0.858884	2.734375	186.035156
6608.908131	1.150989	2.734375	186.035156
6608.910131	1.259624	2.734375	186.035156
6608.912131	1.256072	13.816793	0.057916
6609.992230	0.320556	-147.949219	-136.718750
6609.994231	0.636892	-147.949219	-136.718750
6609.996230	0.943030	-147.949219	-136.718750
6609.998231	1.209116	-147.949219	-136.718750
6610.000231	1.257757	-147.949219	-136.718750
6610.002231	1.254313	13.797439	0.075237
6610.984259	0.530858	10.742187	186.132812
6610.986261	0.840382	10.742187	186.132812
6610.988261	1.135354	10.742187	186.132812
6610.990262	1.258658	10.742187	186.132812
6610.992260	1.255185	13.807036	0.057018
6612.070266	0.460020	-146.875000	-136.425781
6612.072267	0.771047	-146.875000	-136.425781
6612.076264	1.254272	-146.875000	-136.425781
6612.082270	1.251598	-146.875000	-136.425781
6612.084273	1.250465	13.755113	0.074513
6613.060307	0.351410	-28.222656	186.425781
6613.062308	0.666174	-28.222656	186.425781
6613.064309	0.970999	-28.222656	186.425781
6613.066308	1.223359	-28.222656	186.425781
6613.068309	1.256813	-28.222656	186.425781
6613.070310	1.253571	13.789286	0.058809
6614.147304	0.436731	-148.632812	-136.718750
6614.149307	0.748395	-148.632812	-136.718750
6614.151306	1.049764	-148.632812	-136.718750
6614.153306	1.250744	-148.632812	-136.718750
6614.155307	1.256547	-148.632812	-136.718750
6614.157307	1.253697	13.790668	0.074838
6615.139297	0.475629	6.640625	186.328125
6615.141300	0.786378	6.640625	186.328125
6615.143299	1.085934	6.640625	186.328125
6615.145302	1.256100	6.640625	186.328125
6615.147303	1.255945	6.640625	186.328125
6615.149302	1.253363	13.786989	0.058136
6616.229345	0.791488	-145.410156	-136.523437
6616.231349	1.091025	-145.410156	-136.523437
6616.233350	1.257043	-145.410156	-136.523437
6616.235349	1.256574	13.822314	0.071657
6617.221440	0.767424	14.062500	186.035156
6617.223446	1.067930	14.062500	186.035156
6617.225443	1.253530	14.062500	186.035156
6617.227444	1.255557	14.062500	186.035156
6617.229444	1.252885	13.781734	0.055470
6618.307518	0.865100	-144.238281	-136.132812
6618.309519	1.156084	-144.238281	-136.132812
6618.311519	1.259829	-144.238281	-136.132812
6618.313520	1.256380	13.820180	0.069809
6619.295577	0.370709	8.789062	186.230469
6619.297576	0.684678	8.789062	186.230469
6619.299578	0.988786	8.789062	186.230469
6619.301575	1.231313	8.789062	186.230469
6619.303577	1.256428	8.789062	186.230469
6619.305576	1.253355	13.786901	0.057130
6620.381543	0.455667	-145.019531	-136.132812
6620.383545	0.766981	-145.019531	-136.132812
6620.385545	1.067551	-145.019531	-136.132812
6620.387545	1.254660	-145.019531	-136.132812
6620.391543	1.254428	-145.019531	-136.132812
6620.393545	1.252816	13.780973	0.074209
6621.373575	0.420222	17.675781	186.035156
6621.375577	0.732371	17.675781	186.035156
6621.379575	1.246649	17.675781	186.035156
6621.381583	1.256001	17.675781	186.035156
6621.383585	1.253126	13.784385	0.056330
6622.461598	0.504263	-149.414062	-136.718750
6622.463601	0.814382	-149.414062	-136.718750
6622.465601	1.112397	-149.414062	-136.718750
6622.467601	1.258122	-149.414062	-136.718750
6622.469601	1.255848	13.814330	0.071635
6623.452502	0.612339	-3.710937	186.230469
6623.454502	0.919278	-3.710937	186.230469
6623.456503	1.194653	-3.710937	186.230469
6623.458503	1.257231	-3.710937	186.230469
6623.460503	1.253600	13.789595	0.056334
6624.539115	0.312097	-145.800781	-136.132812
6624.541117	0.628737	-145.800781	-136.132812
6624.543117	0.935162	-145.800781	-136.132812
6624.545117	0.945083	-145.800781	-136.132812
6624.547115	1.257565	-145.800781	-136.132812
6624.549118	1.254006	13.794063	0.072138
6625.529144	0.367181	20.898437	186.230469
6625.531146	0.681260	20.898437	186.230469
6625.533146	0.985378	20.898437	186.230469
6625.535147	1.230020	20.898437	186.230469
6625.537146	1.256938	20.898437	186.230469
6625.539147	1.253743	13.791172	0.054682
6626.619250	0.774517	-143.847656	-135.546875
6626.621254	1.074785	-143.847656	-135.546875
6626.623254	1.254661	-143.847656	-135.546875
6626.625254	1.255833	-143.847656	-135.546875
6626.627252	1.253189	13.785076	0.072055
6627.607260	0.513629	28.027344	186.328125
6627.609262	0.823446	28.027344	186.328125
6627.611263	1.120488	28.027344	186.328125
6627.613262	1.258056	28.027344	186.328125
6627.615263	1.255328	13.808605	0.052787
6628.697362	0.520784	-145.214844	-135.839844
6628.699362	0.830549	-145.214844	-135.839844
6628.701363	1.126811	-145.214844	-135.839844
6628.703364	1.259239	-145.214844	-135.839844
6628.705370	1.256341	13.819746	0.068766
6629.683391	0.427584	40.527344	186.230469
6629.685393	0.739550	40.527344	186.230469
6629.687393	1.041179	40.527344	186.230469
6629.689392	1.248281	40.527344	186.230469
6629.691393	1.255829	40.527344	186.230469
6629.693393	1.253056	13.783614	0.053392
6630.777429	0.571545	-145.312500	-135.546875
6630.779430	0.880211	-145.312500	-135.546875
6630.781431	0.890786	-145.312500	-135.546875
6630.785429	1.256517	-145.312500	-135.546875
6630.787432	1.254217	13.796383	0.159527
6631.761493	0.573000	7.812500	187.500000
6631.763494	0.881463	7.812500	187.500000
6631.765496	1.168933	7.812500	187.500000
6631.767496	1.260569	7.812500	187.500000
6631.769496	1.256979	13.826763	0.149502
6632.854091	0.572494	-147.851562	-135.937500
6632.856092	0.881106	-147.851562	-135.937500
6632.858095	1.168351	-147.851562	-135.937500
6632.860092	1.259114	-147.851562	-135.937500
6632.862093	1.255404	13.809446	0.072584
6633.836719	0.343357	34.472656	187.304687
6633.838719	0.658400	34.472656	187.304687
6633.840720	0.963444	34.472656	187.304687
6633.842720	1.219593	34.472656	187.304687
6633.844719	1.256408	34.472656	187.304687
6633.846719	1.253219	13.785404	0.052701
6634.934761	0.553643	-145.800781	-136.132812
6634.936763	0.862778	-145.800781	-136.132812
6634.938764	1.154128	-145.800781	-136.132812
6634.940763	1.259686	-145.800781	-136.132812
6634.942763	1.256144	13.817582	0.073297
6635.912823	0.250163	21.386719	188.183594
6635.914827	0.570300	21.386719	188.183594
6635.916826	0.878930	21.386719	188.183594
6635.918825	1.166878	21.386719	188.183594
6635.920825	1.260386	21.386719	188.183594
6635.922825	1.256865	13.825514	0.052008
6637.010867	0.386379	-146.093750	-136.621094
6637.012869	0.699724	-146.093750	-136.621094
6637.014870	1.003199	-146.093750	-136.621094
6637.016869	1.237042	-146.093750	-136.621094
6637.018868	1.256558	-146.093750	-136.621094
6637.020870	1.253538	13.788922	0.069521
6637.994927	0.626633	17.578125	188.867187
6637.996929	0.932943	17.578125	188.867187
6637.998929	1.203148	17.578125	188.867187
6638.002926	1.253734	17.578125	188.867187
6638.004928	1.251920	13.771117	0.047898
6639.091502	0.764631	-148.339844	-137.695312
6639.093504	1.065268	-148.339844	-137.695312
6639.095503	1.254256	-148.339844	-137.695312
6639.097503	1.257068	-148.339844	-137.695312
6639.101501	1.252794	13.780733	0.068481
6640.069571	0.305629	16.308594	189.550781
6640.071573	0.622535	16.308594	189.550781
6640.073574	0.928994	16.308594	189.550781
6640.075574	1.200649	16.308594	189.550781
6640.077573	1.257326	16.308594	189.550781
6640.079575	1.253806	13.791864	0.050237
6641.169626	0.431351	-142.578125	-138.183594
6641.171628	0.743165	-142.578125	-138.183594
6641.173629	1.044688	-142.578125	-138.183594
6641.175628	1.249156	-142.578125	-138.183594
6641.177630	1.256005	-142.578125	-138.183594
6641.179630	1.253216	13.785377	0.068734
6642.149680	0.843057	30.859375	190.234375
6642.151683	1.137539	30.859375	190.234375
6642.153683	1.258092	30.859375	190.234375
6642.155684	1.254649	13.801134	0.048521
6643.248285	0.663900	-141.699219	-139.160156
6643.250285	0.968788	-141.699219	-139.160156
6643.252286	1.222776	-141.699219	-139.160156
6643.254287	1.257670	-141.699219	-139.160156
6643.256286	1.254403	13.798431	0.605456
6644.226344	0.685354	30.078125	191.113281
6644.228346	0.989244	30.078125	191.113281
6644.230348	1.231254	30.078125	191.113281
6644.234345	1.253100	30.078125	191.113281
6644.236346	1.251303	13.764338	0.048756
6645.324442	0.501963	-144.628906	-140.917969
6645.326444	0.812092	-144.628906	-140.917969
6645.328443	1.110195	-144.628906	-140.917969
6645.330446	1.258320	-144.628906	-140.917969
6645.332446	1.256159	13.817751	0.068736
6646.306507	0.826356	26.757812	192.578125
6646.308509	1.122973	26.757812	192.578125
6646.310510	1.258677	26.757812	192.578125
6646.312510	1.255767	13.813436	0.045937
6647.405101	0.803332	-144.335937	-141.699219
6647.407102	1.102076	-144.335937	-141.699219
6647.409104	1.256511	-144.335937	-141.699219
6647.411103	1.254802	13.802827	0.068711
6648.379203	2.312841	66.015625	192.382812
6648.384560	0.805706	66.015625	192.382812
6648.386562	1.104150	66.015625	192.382812
6648.388561	1.256884	66.015625	192.382812
6648.390563	1.255042	13.805459	0.046377
6649.480640	0.388860	-142.578125	-142.773437
6649.482641	0.702146	-142.578125	-142.773437
6649.484641	0.711213	-142.578125	-142.773437
6649.486642	1.237540	-142.578125	-142.773437
6649.488641	1.256193	-142.578125	-142.773437
6649.492641	1.251569	13.767262	0.066947
6650.458691	0.409749	39.355469	194.140625
6650.460692	0.426701	39.355469	194.140625
6650.462693	1.024522	39.355469	194.140625
6650.464693	1.243592	39.355469	194.140625
6650.466692	1.255488	39.355469	194.140625
6650.468692	1.252709	13.779794	0.047405
6651.558763	0.617230	-142.968750	-143.945312
6651.560764	0.924055	-142.968750	-143.945312
6651.562764	1.197697	-142.968750	-143.945312
6651.564766	1.257484	-142.968750	-143.945312
6651.566767	1.253969	13.793654	0.069247
6652.537349	0.479057	68.164062	194.238281
6652.539351	0.789675	68.164062	194.238281
6652.541358	1.089152	68.164062	194.238281
6652.543355	1.256452	68.164062	194.238281
6652.545353	1.255827	13.814099	0.048010
6653.635409	0.532206	-140.429687	-144.335937
6653.637409	0.841720	-140.429687	-144.335937
6653.639409	1.136481	-140.429687	-144.335937
6653.641411	1.259122	-140.429687	-144.335937
6653.643410	1.255821	13.814028	0.066596
6654.617436	0.533391	25.878906	195.996094
6654.619437	0.842706	25.878906	195.996094
6654.621437	1.137344	25.878906	195.996094
6654.623437	1.258757	25.878906	195.996094
6654.625438	1.255399	13.809385	0.045930
6655.714468	0.823369	-142.480469	-145.410156
6655.716470	1.120359	-142.480469	-145.410156
6655.718468	1.258319	-142.480469	-145.410156
6655.720469	1.255690	13.812585	0.064719
6656.694490	1.740602	57.519531	195.312500
6656.696490	0.824119	57.519531	195.312500
6656.698489	1.120924	57.519531	195.312500
6656.700490	1.257257	57.519531	195.312500
6656.702490	1.254397	13.798368	0.045599
6657.790564	0.574847	-139.160156	-145.410156
6657.792567	0.883444	-139.160156	-145.410156
6657.794567	1.170137	-139.160156	-145.410156
6657.796567	1.259443	-139.160156	-145.410156
6657.798568	1.255767	13.813436	0.162541
6658.770544	0.250263	25.292969	196.582031
6658.772546	0.263861	25.292969	196.582031
6658.774545	0.581513	25.292969	196.582031
6658.776546	1.166713	25.292969	196.582031
6658.778548	1.259143	25.292969	196.582031
6658.780546	1.255359	13.808950	0.048370
6659.871461	0.831800	-135.644531	-145.117187
6659.873464	1.127837	-135.644531	-145.117187
6659.875465	1.258883	-135.644531	-145.117187
6659.877466	1.255956	13.815517	0.064083
6660.851526	0.846362	38.769531	196.484375
6660.853526	1.140306	38.769531	196.484375
6660.855527	1.258720	38.769531	196.484375
6660.859524	1.253085	13.783933	0.044976
6661.948090	0.825198	-140.625000	-146.093750
6661.952092	1.258632	-140.625000	-146.093750
6661.954092	1.255909	-140.625000	-146.093750
6661.956092	1.253537	13.788904	0.064240
6662.929089	0.429029	72.460937	195.703125
6662.931089	0.740891	72.460937	195.703125
6662.933090	1.042401	72.460937	195.703125
6662.935091	1.248401	72.460937	195.703125
6662.939087	1.252857	72.460937	195.703125
6662.941089	1.251380	13.765180	0.045222
6664.023148	0.498029	-137.207031	-145.410156
6664.025151	0.808214	-137.207031	-145.410156
6664.027150	1.106492	-137.207031	-145.410156
6664.029150	1.257550	-137.207031	-145.410156
6664.031151	1.255528	13.810812	0.065171
6665.007135	0.644857	27.050781	196.679687
6665.009137	0.950389	27.050781	196.679687
6665.011139	1.212806	27.050781	196.679687
6665.013139	1.256600	27.050781	196.679687
6665.015139	1.253179	13.784969	0.046074
6666.103195	0.781867	-140.136719	-145.800781
6666.105198	1.081643	-140.136719	-145.800781
6666.107197	1.257047	-140.136719	-145.800781
6666.109198	1.257697	-140.136719	-145.800781
6666.111197	1.254962	13.804582	0.062665
6667.083777	0.639286	70.605469	195.214844
6667.085779	0.945008	70.605469	195.214844
6667.087778	1.209987	70.605469	195.214844
6667.089780	1.257032	70.605469	195.214844
6667.091778	1.253509	13.788604	0.044432
6668.179845	0.462209	-136.816406	-144.921875
6668.181845	0.773230	-136.816406	-144.921875
6668.183845	1.073432	-136.816406	-144.921875
6668.185844	1.255262	-136.816406	-144.921875
6668.187845	1.256885	-136.816406	-144.921875
6668.189846	1.254090	13.794992	0.063565
6669.159881	0.472144	50.585937	195.312500
6669.161883	0.782879	50.585937	195.312500
6669.163897	1.082539	50.585937	195.312500
6669.165895	1.255156	50.585937	195.312500
6669.167896	1.254968	50.585937	195.312500
6669.169896	1.252466	13.777125	0.043810
6670.255862	0.270826	-138.574219	-144.921875
6670.257864	0.589740	-138.574219	-144.921875
6670.259865	0.897622	-138.574219	-144.921875
6670.263862	1.258122	-138.574219	-144.921875
6670.265864	1.254339	-138.574219	-144.921875
6670.267864	1.252432	13.776754	0.064981
6671.241890	0.820195	48.242187	194.433594
6671.243894	1.117433	48.242187	194.433594
6671.245893	1.258069	48.242187	194.433594
6671.247893	1.255492	13.810413	0.041227
6672.334509	0.425711	-142.187500	-144.726562
6672.338508	1.039219	-142.187500	-144.726562
6672.340510	1.247626	-142.187500	-144.726562
6672.342511	1.255424	-142.187500	-144.726562
6672.344511	1.252746	13.780210	0.062640
6673.316545	0.508337	72.851562	193.164062
6673.318547	0.818138	72.851562	193.164062
6673.320547	1.115604	72.851562	193.164062
6673.322547	1.256970	72.851562	193.164062
6673.324546	1.254365	13.798015	0.042222
6674.412515	0.554489	-140.429687	-143.554687
6674.416516	1.154591	-140.429687	-143.554687
6674.418515	1.258194	-140.429687	-143.554687
6674.420515	1.254467	13.799140	0.065916
6675.397013	1.012013	82.519531	192.480469
6675.399017	1.239935	82.519531	192.480469
6675.401017	1.256021	82.519531	192.480469
6675.403015	1.252983	13.782815	0.043177
6676.491054	0.363749	-139.355469	-142.382812
6676.493056	0.678010	-139.355469	-142.382812
6676.495056	0.982129	-139.355469	-142.382812
6676.497055	1.228455	-139.355469	-142.382812
6676.499057	1.256595	-139.355469	-142.382812
6676.501057	1.253452	13.787974	0.061891
6677.471048	0.528010	55.468750	192.187500
6677.473051	0.837370	55.468750	192.187500
6677.475051	1.132599	55.468750	192.187500
6677.477050	1.258588	55.468750	192.187500
6677.479051	1.255397	13.809366	0.040738
6678.567745	0.281113	-136.132812	-140.136719
6678.569747	0.599537	-136.132812	-140.136719
6678.571746	0.906976	-136.132812	-140.136719
6678.573747	1.186625	-136.132812	-140.136719
6678.575748	1.257787	-136.132812	-140.136719
6678.577746	1.254126	13.795382	0.063515
6679.547813	0.464075	58.984375	191.699219
6679.549814	0.774873	58.984375	191.699219
6679.551813	1.074954	58.984375	191.699219
6679.553812	1.253993	58.984375	191.699219
6679.555813	1.254837	58.984375	191.699219
6679.557814	1.252370	13.776072	0.041829
6680.646328	0.505105	-142.480469	-140.234375
6680.648331	0.815121	-142.480469	-140.234375
6680.650331	1.112975	-142.480469	-140.234375
6680.652331	1.258036	-142.480469	-140.234375
6680.654332	1.255604	13.811645	0.063123
6681.628427	0.597091	89.062500	189.648437
6681.630428	0.904510	89.062500	189.648437
6681.632428	1.184812	89.062500	189.648437
6681.634427	1.257396	89.062500	189.648437
6681.636428	1.253731	13.791039	0.040298
6682.722490	0.429145	-139.843750	-138.574219
6682.724493	0.740914	-139.843750	-138.574219
6682.726492	1.042477	-139.843750	-138.574219
6682.728493	1.248235	-139.843750	-138.574219
6682.730491	1.255337	-139.843750	-138.574219
6682.732492	1.252638	13.779023	0.062260
6683.704451	0.498963	58.203125	189.550781
6683.706453	0.808907	58.203125	189.550781
6683.708452	1.107054	58.203125	189.550781
6683.710453	1.256728	58.203125	189.550781
6683.712451	1.254478	13.799255	0.042182
6684.802994	0.786296	-137.011719	-136.914062
6684.804996	1.085878	-137.011719	-136.914062
6684.806999	1.255760	-137.011719	-136.914062
6684.808998	1.255456	-137.011719	-136.914062
6684.810998	1.252965	13.782612	0.059348
6685.781028	0.405567	72.949219	188.378906
6685.783030	0.717980	72.949219	188.378906
6685.785032	1.020523	72.949219	188.378906
6685.787030	1.242504	72.949219	188.378906
6685.789030	1.244126	72.949219	188.378906
6685.791031	1.252948	13.782426	0.041020
6686.877121	0.301741	-139.746094	-136.621094
6686.879122	0.618880	-139.746094	-136.621094
6686.881123	0.925646	-139.746094	-136.621094
6686.883123	1.198712	-139.746094	-136.621094
6686.885125	1.257379	-139.746094	-136.621094
6686.887122	1.253807	13.791882	0.060667
6687.861113	0.617080	61.035156	187.695312
6687.863115	0.923789	61.035156	187.695312
6687.865114	1.197147	61.035156	187.695312
6687.867116	1.256507	61.035156	187.695312
6687.869114	1.253016	13.783178	0.039979
6688.955646	0.437590	-142.382812	-137.109375
6688.957647	0.749195	-142.382812	-137.109375
6688.959647	1.050457	-142.382812	-137.109375
6688.961647	1.250291	-142.382812	-137.109375
6688.963648	1.255614	-142.382812	-137.109375
6688.965647	1.252899	13.781885	0.059935
6689.938602	0.342622	102.343750	185.937500
6689.940602	0.657750	102.343750	185.937500
6689.942603	0.962691	102.343750	185.937500
6689.944604	1.219023	102.343750	185.937500
6689.946603	1.256061	102.343750	185.937500
6689.948604	1.252885	13.781734	0.040314
6691.032692	0.496367	-139.550781	-135.546875
6691.034695	0.806450	-139.550781	-135.546875
6691.036694	1.104882	-139.550781	-135.546875
6691.038695	1.256875	-139.550781	-135.546875
6691.040696	1.254935	13.804280	0.057582
6692.016672	0.483150	57.031250	186.425781
6692.018672	0.793538	57.031250	186.425781
6692.020671	1.092760	57.031250	186.425781
6692.022672	1.256538	57.031250	186.425781
6692.024673	1.255714	13.812849	0.038209
6693.108777	0.484156	-140.722656	-135.742187
6693.110779	0.794477	-140.722656	-135.742187
6693.112780	1.093678	-140.722656	-135.742187
6693.114776	1.256622	-140.722656	-135.742187
6693.116777	1.255684	13.812522	0.057650
6694.095384	0.722574	88.964844	185.644531
6694.097386	0.734033	88.964844	185.644531
6694.099386	1.243783	88.964844	185.644531
6694.101386	1.255661	88.964844	185.644531
6694.103386	1.252833	13.781157	0.039992
6695.185429	0.482627	-139.453125	-134.863281
6695.187430	0.792920	-139.453125	-134.863281
6695.189430	1.092323	-139.453125	-134.863281
6695.191430	1.256108	-139.453125	-134.863281
6695.193430	1.255184	13.807027	0.057658
6696.173410	0.455080	93.066406	185.449219
6696.175412	0.766162	93.066406	185.449219
6696.177413	1.066554	93.066406	185.449219
6696.179412	1.253328	93.066406	185.449219
6696.181410	1.255562	93.066406	185.449219
6696.183410	1.252920	13.782125	0.038865
6697.261389	0.369411	-136.425781	-134.277344
6697.263393	0.683214	-136.425781	-134.277344
6697.265391	0.987200	-136.425781	-134.277344
6697.267391	1.230570	-136.425781	-134.277344
6697.269391	1.256477	-136.425781	-134.277344
6697.273390	1.251718	13.768903	0.059303
6698.253429	0.657340	59.277344	185.839844
6698.255430	0.962282	59.277344	185.839844
6698.257430	1.218990	59.277344	185.839844
6698.259429	1.256158	59.277344	185.839844
6698.261431	1.252937	13.782310	0.038275
6699.341416	0.813143	-138.183594	-134.667969
6699.345418	1.258445	-138.183594	-134.667969
6699.347419	1.256402	-138.183594	-134.667969
6699.349419	1.253870	13.792564	0.056090
6700.327475	0.238377	54.199219	185.449219
6700.329478	0.559264	54.199219	185.449219
6700.331476	0.868055	54.199219	185.449219
6700.333476	1.158095	54.199219	185.449219
6700.335477	1.258505	54.199219	185.449219
6700.337475	1.254852	13.803368	0.040229
6701.417595	0.578169	-136.718750	-134.277344
6701.419598	0.886500	-136.718750	-134.277344
6701.421597	1.172265	-136.718750	-134.277344
6701.423597	1.258802	-136.718750	-134.277344
6701.425597	1.255051	13.805565	0.164737
6702.405586	0.306266	89.453125	184.570312
6702.407588	0.623027	89.453125	184.570312
6702.409588	0.929350	89.453125	184.570312
6702.411588	1.200741	89.453125	184.570312
6702.413588	1.256875	89.453125	184.570312
6702.415588	1.253311	13.786423	0.039220
6703.493591	0.392437	-135.742187	-134.277344
6703.495593	0.705450	-135.742187	-134.277344
6703.497592	1.008546	-135.742187	-134.277344
6703.499593	1.238428	-135.742187	-134.277344
6703.501592	1.255618	-135.742187	-134.277344
6703.503594	1.252807	13.780874	0.055683
6704.485590	0.433837	89.941406	184.375000
6704.487593	0.745475	89.941406	184.375000
6704.489593	1.046670	89.941406	184.375000
6704.491592	1.249294	89.941406	184.375000
6704.493594	1.255399	89.941406	184.375000
6704.495592	1.252721	13.779926	0.038018
6705.571567	0.597023	-134.960937	-134.277344
6705.573567	0.904570	-134.960937	-134.277344
6705.575568	0.915098	-134.960937	-134.277344
6705.577569	1.257264	-134.960937	-134.277344
6705.579568	1.253608	13.789684	0.056000
6706.563589	1.410727	95.800781	184.375000
6706.565589	0.868223	95.800781	184.375000
6706.567591	1.158314	95.800781	184.375000
6706.569590	1.259226	95.800781	184.375000
6706.571592	1.255555	13.811104	0.065608
6707.649658	0.736565	-139.550781	-135.742187
6707.651659	1.038311	-139.550781	-135.742187
6707.653659	1.247824	-139.550781	-135.742187
6707.655659	1.256165	-139.550781	-135.742187
6707.657659	1.253371	13.787079	0.054723
6708.640259	0.560590	72.167969	184.667969
6708.642261	0.869376	72.167969	184.667969
6708.644261	1.159106	72.167969	184.667969
6708.646262	1.258554	72.167969	184.667969
6708.648261	1.254790	13.802686	0.038744
6709.724871	0.509982	-136.132812	-134.375000
6709.726874	0.819721	-136.132812	-134.375000
6709.728872	1.117000	-136.132812	-134.375000
6709.730872	1.258279	-136.132812	-134.375000
6709.732873	1.255733	13.813063	0.054976
6710.716860	0.470275	83.593750	184.960937
6710.718862	0.780881	83.593750	184.960937
6710.720862	1.080632	83.593750	184.960937
6710.722861	1.255916	83.593750	184.960937
6710.724861	1.256409	13.820498	0.037678
6711.802845	0.394597	-135.156250	-134.082031
6711.804847	0.707491	-135.156250	-134.082031
6711.806848	1.010410	-135.156250	-134.082031
6711.808849	1.239274	-135.156250	-134.082031
6711.810848	1.256166	-135.156250	-134.082031
6711.812846	1.253234	13.785572	0.054013
6712.794893	0.522203	104.394531	184.570312
6712.796895	0.831623	104.394531	184.570312
6712.798895	1.127631	104.394531	184.570312
6712.800896	1.258200	104.394531	184.570312
6712.802896	1.255099	13.806088	0.036932
6713.882865	0.597081	-133.593750	-133.496094
6713.884868	0.904518	-133.593750	-133.496094
6713.886867	1.184890	-133.593750	-133.496094
6713.888867	1.257298	-133.593750	-133.496094
6713.890874	1.253691	13.790597	0.054387
6714.872950	0.575848	104.589844	184.960937
6714.874952	0.884238	104.589844	184.960937
6714.876952	1.170520	104.589844	184.960937
6714.878951	1.258720	104.589844	184.960937
6714.880951	1.254988	13.804865	0.145110
6715.959046	0.520947	-133.886719	-133.398437
6715.963045	1.126691	-133.886719	-133.398437
6715.965046	1.257655	-133.886719	-133.398437
6715.967047	1.254586	13.800451	0.052514
6716.949015	0.403584	97.851562	185.156250
6716.951019	0.716052	97.851562	185.156250
6716.953019	1.018601	97.851562	185.156250
6716.955018	1.241522	97.851562	185.156250
6716.957020	1.255183	97.851562	185.156250
6716.959017	1.252414	13.776550	0.035844
6718.039066	0.953627	-133.496094	-132.910156
6718.041068	1.214602	-133.496094	-132.910156
6718.043068	1.256739	-133.496094	-132.910156
6718.045070	1.253533	13.788860	0.527270
6719.027047	0.614000	109.863281	185.156250
6719.029049	0.920759	109.863281	185.156250
6719.033049	1.256718	109.863281	185.156250
6719.035050	1.253290	109.863281	185.156250
6719.037051	1.251425	13.765676	0.339260
6720.115052	0.533744	-134.765625	-133.496094
6720.117053	0.843011	-134.765625	-133.496094
6720.119054	1.137411	-134.765625	-133.496094
6720.121056	1.257747	-134.765625	-133.496094
6720.123053	1.254330	13.797633	0.053503
6721.105036	0.817366	124.023437	185.253906
6721.107040	1.114800	124.023437	185.253906
6721.109039	1.257228	124.023437	185.253906
6721.111038	1.254574	13.800309	0.036412
6722.193122	0.433857	-134.082031	-133.105469
6722.195124	0.745546	-134.082031	-133.105469
6722.197124	1.046861	-134.082031	-133.105469
6722.199124	1.249390	-134.082031	-133.105469
6722.201124	1.255503	-134.082031	-133.105469
6722.205122	1.251270	13.763966	0.054356
6723.179191	0.426517	80.566406	186.621094
6723.181193	0.738282	80.566406	186.621094
6723.183192	1.039825	80.566406	186.621094
6723.185191	1.247554	80.566406	186.621094
6723.187192	1.255160	80.566406	186.621094
6723.189192	1.252513	13.777639	0.037508
6724.269734	0.342257	-136.621094	-133.789062
6724.271737	0.360728	-136.621094	-133.789062
6724.273737	0.962379	-136.621094	-133.789062
6724.275737	1.219025	-136.621094	-133.789062
6724.277736	1.256415	-136.621094	-133.789062
6724.279736	1.253196	13.785154	0.054693
6725.255781	0.495328	127.246094	186.230469
6725.259782	1.103741	127.246094	186.230469
6725.261784	1.256375	127.246094	186.230469
6725.263784	1.254520	13.799717	0.036754
6726.347775	0.479933	-135.742187	-133.691406
6726.349777	0.790340	-135.742187	-133.691406
6726.351777	0.805250	-135.742187	-133.691406
6726.353778	1.256054	-135.742187	-133.691406
6726.355778	1.255360	13.808960	0.054370
6727.333833	0.630343	79.394531	187.792969
6727.335836	0.936283	79.394531	187.792969
6727.337836	1.204672	79.394531	187.792969
6727.339836	1.256400	79.394531	187.792969
6727.341835	1.252965	13.782612	0.419311
6728.427865	0.532800	-135.644531	-134.375000
6728.429868	0.842279	-135.644531	-134.375000
6728.431866	1.136750	-135.644531	-134.375000
6728.433867	1.258242	-135.644531	-134.375000
6728.435866	1.254767	13.802437	0.053715
6729.409910	0.377114	87.988281	187.988281
6729.411914	0.690487	87.988281	187.988281
6729.413912	0.994050	87.988281	187.988281
6729.415914	1.232660	87.988281	187.988281
6729.419911	1.252219	87.988281	187.988281
6729.421913	1.250444	13.754882	0.034909
6730.506453	0.750773	-137.207031	-135.449219
6730.508455	1.051893	-137.207031	-135.449219
6730.510455	1.250351	-137.207031	-135.449219
6730.512457	1.255214	-137.207031	-135.449219
6730.514457	1.252613	13.778738	0.053657
6731.487022	0.364878	114.843750	187.988281
6731.489023	0.678884	114.843750	187.988281
6731.491023	0.982920	114.843750	187.988281
6731.493023	1.228320	114.843750	187.988281
6731.495022	1.255716	114.843750	187.988281
6731.497022	1.252712	13.779838	0.034328
6732.581072	0.431619	-133.691406	-135.253906
6732.583075	0.743389	-133.691406	-135.253906
6732.585074	1.044814	-133.691406	-135.253906
6732.587074	1.249001	-133.691406	-135.253906
6732.589074	1.255562	-133.691406	-135.253906
6732.593074	1.251312	13.764435	0.055037
6733.565086	0.501757	87.304687	189.355469
6733.567087	0.811627	87.304687	189.355469
6733.569088	1.109598	87.304687	189.355469
6733.571087	1.257289	87.304687	189.355469
6733.573088	1.255099	13.806088	0.034795
6734.660062	0.714451	-137.011719	-136.816406
6734.662062	1.017035	-137.011719	-136.816406
6734.664064	1.241527	-137.011719	-136.816406
6734.666063	1.256050	-137.011719	-136.816406
6734.670061	1.251553	13.767085	0.056004
6735.644635	0.946853	82.519531	190.332031
6735.646635	1.210708	82.519531	190.332031
6735.648637	1.256347	82.519531	190.332031
6735.650636	1.252973	13.782700	0.035265
6736.736660	0.542387	-135.546875	-137.695312
6736.738662	0.851489	-135.546875	-137.695312
6736.742660	1.258555	-135.546875	-137.695312
6736.744662	1.254981	-135.546875	-137.695312
6736.746663	1.252905	13.781957	0.054921
6737.720718	0.780380	96.582031	190.527344
6737.722723	1.080160	96.582031	190.527344
6737.724722	1.255910	96.582031	190.527344
6737.726720	1.256439	96.582031	190.527344
6737.728720	1.253742	13.791164	0.033848
6738.821346	1.253248	-135.644531	-138.671875
6738.823349	1.255147	-135.644531	-138.671875
6738.825348	1.252593	13.778526	0.052980
6739.797895	0.778168	123.632812	190.625000
6739.799896	1.077996	123.632812	190.625000
6739.801899	1.254925	123.632812	190.625000
6739.803900	1.255577	123.632812	190.625000
6739.805899	1.252949	13.782443	0.034612
6740.891898	0.440079	-133.789062	-138.964844
6740.893899	0.751515	-133.789062	-138.964844
6740.895898	1.052511	-133.789062	-138.964844
6740.897899	1.250545	-133.789062	-138.964844
6740.899899	1.255416	-133.789062	-138.964844
6740.901898	1.252787	13.780663	0.053872
6741.873877	0.351675	86.132812	192.382812
6741.875881	0.666236	86.132812	192.382812
6741.877879	0.970746	86.132812	192.382812
6741.879880	1.222893	86.132812	192.382812
6741.881878	1.255688	86.132812	192.382812
6741.883882	1.255533	13.810865	0.032513
6742.968818	0.397712	-135.156250	-140.332031
6742.970819	0.710404	-135.156250	-140.332031
6742.972820	1.013222	-135.156250	-140.332031
6742.974818	1.240454	-135.156250	-140.332031
6742.976820	1.256514	-135.156250	-140.332031
6742.978818	1.253505	13.788559	0.053138
6743.951744	0.459096	125.878906	191.601562
6743.953745	0.769927	125.878906	191.601562
6743.955746	1.070089	125.878906	191.601562
6743.957746	1.253255	125.878906	191.601562
6743.959746	1.254783	125.878906	191.601562
6743.961746	1.252217	13.774387	0.034283
6745.045775	0.439615	-132.617187	-140.234375
6745.047776	0.751150	-132.617187	-140.234375
6745.049776	1.052156	-132.617187	-140.234375
6745.051777	1.250437	-132.617187	-140.234375
6745.053776	1.251237	-132.617187	-140.234375
6745.055776	1.252703	13.779731	0.053912
6746.027749	0.351796	89.160156	193.164062
6746.029750	0.666300	89.160156	193.164062
6746.031749	0.970845	89.160156	193.164062
6746.033750	1.223030	89.160156	193.164062
6746.035750	1.256098	89.160156	193.164062
6746.037751	1.253005	13.783055	0.035904
6747.122320	0.420741	-133.203125	-141.113281
6747.124322	0.732635	-133.203125	-141.113281
6747.126323	1.034473	-133.203125	-141.113281
6747.128322	1.245959	-133.203125	-141.113281
6747.130322	1.254979	-133.203125	-141.113281
6747.132322	1.252315	13.775460	0.054065
6748.106301	0.567928	86.230469	193.457031
6748.108302	0.876520	86.230469	193.457031
6748.110302	1.164564	86.230469	193.457031
6748.112302	1.258165	86.230469	193.457031
6748.114304	1.254338	13.797713	0.116435
6749.201246	0.533321	-133.886719	-141.796875
6749.203248	0.842586	-133.886719	-141.796875
6749.205247	1.137172	-133.886719	-141.796875
6749.207247	1.258858	-133.886719	-141.796875
6749.209247	1.255470	13.810173	0.054357
6750.185807	0.846713	125.781250	192.675781
6750.187809	1.140720	125.781250	192.675781
6750.189811	1.259353	125.781250	192.675781
6750.191810	1.255953	13.815482	0.031737
6751.277849	0.360955	-131.347656	-141.308594
6751.279850	0.675223	-131.347656	-141.308594
6751.283850	1.227099	-131.347656	-141.308594
6751.285850	1.256320	-131.347656	-141.308594
6751.287850	1.253247	13.785723	0.053171
6752.263862	0.744162	88.769531	193.554687
6752.265862	1.045434	88.769531	193.554687
6752.267863	1.248752	88.769531	193.554687
6752.269864	1.255077	88.769531	193.554687
6752.271862	1.252396	13.776355	0.032603
6753.356876	0.651208	-132.910156	-141.894531
6753.360876	1.216009	-132.910156	-141.894531
6753.362877	1.256441	-132.910156	-141.894531
6753.364879	1.253202	13.785227	0.053664
6754.339477	0.617745	129.882812	192.285156
6754.341478	0.810049	129.882812	192.285156
6754.343477	1.108031	129.882812	192.285156
6754.345476	1.256840	129.882812	192.285156
6754.347477	1.254657	13.801231	0.032385
6755.431501	0.327982	-131.640625	-141.503906
6755.433503	0.643700	-131.640625	-141.503906
6755.435504	0.949234	-131.640625	-141.503906
6755.437505	1.212253	-131.640625	-141.503906
6755.439504	1.256925	-131.640625	-141.503906
6755.441504	1.253530	13.788833	0.054573
6756.419467	1.011245	136.914062	191.796875
6756.421470	1.239135	136.914062	191.796875
6756.423471	1.255389	136.914062	191.796875
6756.425471	1.252592	13.778517	0.031504
6757.509488	0.457493	-131.542969	-141.308594
6757.511491	0.768396	-131.542969	-141.308594
6757.513491	1.068747	-131.542969	-141.308594
6757.515492	1.253152	-131.542969	-141.308594
6757.517490	1.254831	-131.542969	-141.308594
6757.519490	1.252261	13.774876	0.052520
6758.493514	0.530523	87.304687	193.554687
6758.495516	0.839843	87.304687	193.554687
6758.497517	1.134722	87.304687	193.554687
6758.499516	1.258784	87.304687	193.554687
6758.501516	1.255417	13.809588	0.032769
6759.586505	0.349790	-133.105469	-141.210937
6759.588509	0.664455	-133.105469	-141.210937
6759.590507	0.969157	-133.105469	-141.210937
6759.592509	1.222081	-133.105469	-141.210937
6759.594508	1.255775	-133.105469	-141.210937
6759.596507	1.252762	13.780379	0.052161
6760.569068	0.353678	129.589844	191.796875
6760.571070	0.668104	129.589844	191.796875
6760.573071	0.972611	129.589844	191.796875
6760.575069	1.223566	129.589844	191.796875
6760.577071	1.255560	129.589844	191.796875
6760.579073	1.252507	13.777578	0.033435
6761.665127	0.497220	-131.738281	-140.234375
6761.667129	0.807209	-131.738281	-140.234375
6761.669129	1.105509	-131.738281	-140.234375
6761.671130	1.257463	-131.738281	-140.234375
6761.673130	1.255518	13.810697	0.051297
6762.647158	0.335500	141.894531	190.917969
6762.649160	0.650656	141.894531	190.917969
6762.651159	0.955781	141.894531	190.917969
6762.655158	1.255989	141.894531	190.917969
6762.657160	1.252856	141.894531	190.917969
6762.659160	1.251170	13.762867	0.032048
6763.743223	0.558722	-130.468750	-139.160156
6763.745226	0.867557	-130.468750	-139.160156
6763.747225	0.878370	-130.468750	-139.160156
6763.749225	1.257671	-130.468750	-139.160156
6763.751225	1.253975	13.793725	0.052571
6764.725315	0.410160	93.066406	192.285156
6764.727316	0.722432	93.066406	192.285156
6764.729316	1.024577	93.066406	192.285156
6764.731314	1.243307	93.066406	192.285156
6764.733316	1.255236	93.066406	192.285156
6764.735316	1.252446	13.776904	0.031638
6765.820318	0.625182	-134.667969	-139.453125
6765.822321	0.931527	-134.667969	-139.453125
6765.824319	1.201948	-134.667969	-139.453125
6765.826320	1.256939	-134.667969	-139.453125
6765.828322	1.253427	13.787699	0.052215
6766.802924	0.554276	129.101562	190.625000
6766.804928	0.863063	129.101562	190.625000
6766.806927	1.154122	129.101562	190.625000
6766.808927	1.258787	129.101562	190.625000
6766.810925	1.255133	13.806460	0.031487
6767.896954	0.538336	-133.007812	-138.378906
6767.898956	0.847517	-133.007812	-138.378906
6767.900956	1.141263	-133.007812	-138.378906
6767.902956	1.259097	-133.007812	-138.378906
6767.904956	1.255780	13.813585	0.051447
6768.879010	0.382344	95.800781	190.722656
6768.881011	0.695568	95.800781	190.722656
6768.883014	0.998878	95.800781	190.722656
6768.885012	1.234816	95.800781	190.722656
6768.887011	1.255473	95.800781	190.722656
6768.889012	1.252455	13.777002	0.031497
6769.973990	0.513007	-134.277344	-137.890625
6769.975991	0.822685	-134.277344	-137.890625
6769.977991	1.119508	-134.277344	-137.890625
6769.979991	1.257407	-134.277344	-137.890625
6769.981991	1.254616	13.800771	0.052996
6770.956551	2.147093	126.660156	189.160156
6770.958554	0.828978	126.660156	189.160156
6770.960554	1.125035	126.660156	189.160156
6770.962555	1.257550	126.660156	189.160156
6770.964556	1.254470	13.799168	0.031094
6772.050686	0.356105	-133.300781	-136.816406
6772.052689	0.670456	-133.300781	-136.816406
6772.054688	0.974935	-133.300781	-136.816406
6772.056688	1.225200	-133.300781	-136.816406
6772.058687	1.256521	-133.300781	-136.816406
6772.062686	1.251641	13.768051	0.050748
6773.032694	0.268891	120.312500	188.574219
6773.034695	0.587601	120.312500	188.574219
6773.036700	0.895987	120.312500	188.574219
6773.038701	1.178953	120.312500	188.574219
6773.040699	1.258435	120.312500	188.574219
6773.042699	1.254679	13.801472	0.031830
6774.128782	0.420359	-133.300781	-136.035156
6774.130783	0.434751	-133.300781	-136.035156
6774.132785	1.034194	-133.300781	-136.035156
6774.134786	1.246142	-133.300781	-136.035156
6774.136783	1.255276	-133.300781	-136.035156
6774.138784	1.252511	13.777622	0.050399
6775.112800	0.412239	104.980469	188.183594
6775.114803	0.724452	104.980469	188.183594
6775.116802	1.026480	104.980469	188.183594
6775.118802	1.243874	104.980469	188.183594
6775.120802	1.255051	104.980469	188.183594
6775.122803	1.252351	13.775859	0.029880
6776.207813	0.786603	-133.593750	-135.156250
6776.209819	1.086094	-133.593750	-135.156250
6776.211816	1.255472	-133.593750	-135.156250
6776.213817	1.255053	13.805584	0.049933
6777.190400	0.556112	136.914062	187.207031
6777.192399	0.864908	136.914062	187.207031
6777.194400	1.155651	136.914062	187.207031
6777.200397	1.253173	136.914062	187.207031
6777.202399	1.251755	13.769301	0.034658
6778.282493	0.477826	-131.347656	-133.496094
6778.284495	0.788234	-131.347656	-133.496094
6778.286495	1.087651	-131.347656	-133.496094
6778.288497	1.255135	-131.347656	-133.496094
6778.290495	1.254564	13.800203	0.050415
6779.266576	1.145163	104.101562	187.890625
6779.268578	0.713198	104.101562	187.890625
6779.270579	1.015676	104.101562	187.890625
6779.272578	1.240676	104.101562	187.890625
6779.274578	1.255332	104.101562	187.890625
6779.276577	1.252514	13.777658	0.030020
6780.359637	0.551316	-133.007812	-133.105469
6780.361639	0.860236	-133.007812	-133.105469
6780.363640	1.151777	-133.007812	-133.105469
6780.365645	1.258886	-133.007812	-133.105469
6780.369650	1.253090	13.783995	0.048926
6781.343747	0.396968	145.117187	185.937500
6781.345749	0.709634	145.117187	185.937500
6781.347748	1.012270	145.117187	185.937500
6781.351747	1.255052	145.117187	185.937500
6781.353751	1.252372	145.117187	185.937500
6781.355748	1.250665	13.757311	0.031356
6782.435839	0.478005	-131.054687	-132.324219
6782.437840	0.788395	-131.054687	-132.324219
6782.439840	1.087916	-131.054687	-132.324219
6782.441842	1.095401	-131.054687	-132.324219
6782.443840	1.254594	13.800531	0.048914
6783.423844	0.534132	151.074219	185.644531
6783.425847	0.843426	151.074219	185.644531
6783.427845	1.137652	151.074219	185.644531
6783.429845	1.257848	151.074219	185.644531
6783.431846	1.254327	13.797598	0.029259
6784.511962	0.473184	-132.910156	-132.617187
6784.513963	0.783688	-132.910156	-132.617187
6784.515965	1.083314	-132.910156	-132.617187
6784.517968	1.254684	-132.910156	-132.617187
6784.519969	1.254475	-132.910156	-132.617187
6784.521967	1.252062	13.772677	0.048946
6785.499984	0.370012	142.480469	185.449219
6785.501985	0.683731	142.480469	185.449219
6785.503985	0.987552	142.480469	185.449219
6785.505984	1.230286	142.480469	185.449219
6785.507985	1.255586	142.480469	185.449219
6785.509984	1.252626	13.778881	0.030124
6786.590052	0.533723	-130.664062	-131.640625
6786.592052	0.843014	-130.664062	-131.640625
6786.594053	1.137408	-130.664062	-131.640625
6786.596055	1.258235	-130.664062	-131.640625
6786.598053	1.254787	13.802658	0.047745
6787.580097	0.826224	114.453125	186.035156
6787.582100	1.122723	114.453125	186.035156
6787.584099	1.258138	114.453125	186.035156
6787.586099	1.255211	13.807320	0.029722
6788.664719	0.296389	-130.468750	-131.347656
6788.666722	0.613630	-130.468750	-131.347656
6788.668722	0.920368	-130.468750	-131.347656
6788.670721	1.195083	-130.468750	-131.347656
6788.672721	1.256929	-130.468750	-131.347656
6788.674721	1.253330	13.786635	0.049055
6789.654718	0.507884	147.363281	185.546875
6789.656719	0.817457	147.363281	185.546875
6789.658720	1.114770	147.363281	185.546875
6789.660721	1.257531	147.363281	185.546875
6789.662720	1.255087	13.805955	0.031315
6790.744787	0.432512	-130.273437	-131.152344
6790.746789	0.744069	-130.273437	-131.152344
6790.748788	1.045436	-130.273437	-131.152344
6790.750789	1.248796	-130.273437	-131.152344
6790.752788	1.255064	-130.273437	-131.152344
6790.758787	1.249571	13.745283	0.049151
6791.732792	0.486055	103.417969	186.230469
6791.734792	0.796244	103.417969	186.230469
6791.736793	1.095176	103.417969	186.230469
6791.738796	1.256376	103.417969	186.230469
6791.740798	1.255258	13.807843	0.030734
6792.819775	0.408598	-130.371094	-131.054687
6792.821777	0.720941	-130.371094	-131.054687
6792.823778	1.023228	-130.371094	-131.054687
6792.825782	1.242858	-130.371094	-131.054687
6792.827786	1.254972	-130.371094	-131.054687
6792.831785	1.250639	13.757026	0.048526
6793.809771	0.375406	142.382812	184.960937
6793.811774	0.688845	142.382812	184.960937
6793.813775	0.992374	142.382812	184.960937
6793.815774	1.232370	142.382812	184.960937
6793.817774	1.255708	142.382812	184.960937
6793.819774	1.252744	13.780184	0.029942
6794.897783	0.617075	-130.566406	-131.445312
6794.899785	0.923655	-130.566406	-131.445312
6794.901785	1.197316	-130.566406	-131.445312
6794.903785	1.257133	-130.566406	-131.445312
6794.905785	1.253520	13.788717	0.376132
6795.887750	0.420155	131.542969	185.351562
6795.889754	0.732039	131.542969	185.351562
6795.891752	1.033754	131.542969	185.351562
6795.893752	1.245344	131.542969	185.351562
6795.895751	1.254411	131.542969	185.351562
6795.897751	1.251710	13.768813	0.029478
6796.973770	0.428340	-129.199219	-131.054687
6796.977772	1.041728	-129.199219	-131.054687
6796.979773	1.247916	-129.199219	-131.054687
6796.981772	1.255121	-129.199219	-131.054687
6796.983774	1.252468	13.777153	0.048836
6797.965783	0.550968	137.890625	185.156250
6797.967786	0.859766	137.890625	185.156250
6797.969785	1.151384	137.890625	185.156250
6797.971785	1.258222	137.890625	185.156250
6797.973786	1.254535	13.799885	0.029799
6799.049751	0.319074	-129.394531	-130.859375
6799.051755	0.635223	-129.394531	-130.859375
6799.053757	0.941287	-129.394531	-130.859375
6799.055756	1.207463	-129.394531	-130.859375
6799.057756	1.256122	-129.394531	-130.859375
6799.059757	1.252765	13.780415	0.049494
6800.041778	0.446995	143.261719	185.351562
6800.043780	0.758016	143.261719	185.351562
6800.045780	1.058630	143.261719	185.351562
6800.047780	1.251320	143.261719	185.351562
6800.049781	1.254855	143.261719	185.351562
6800.051779	1.252285	13.775132	0.030299
6801.127831	0.381318	-134.375000	-132.421875
6801.129834	0.694583	-134.375000	-132.421875
6801.131832	0.997943	-134.375000	-132.421875
6801.133833	1.234451	-134.375000	-132.421875
6801.137831	1.252582	-134.375000	-132.421875
6801.139834	1.250940	13.760341	0.048122
6802.117910	0.361471	133.593750	185.546875
6802.119913	0.675584	133.593750	185.546875
6802.121912	0.979675	133.593750	185.546875
6802.123913	1.226909	133.593750	185.546875
6802.125914	1.255623	133.593750	185.546875
6802.127918	1.252591	13.778500	0.030210
6803.205955	0.449955	-130.078125	-130.957031
6803.207955	0.760987	-130.078125	-130.957031
6803.209956	1.061612	-130.078125	-130.957031
6803.211956	1.251898	-130.078125	-130.957031
6803.213954	1.254807	-130.078125	-130.957031
6803.215955	1.252230	13.774529	0.048413
6804.195975	0.420826	144.433594	185.156250
6804.197976	0.732611	144.433594	185.156250
6804.199974	1.034445	144.433594	185.156250
6804.201976	1.245925	144.433594	185.156250
6804.203977	1.254845	144.433594	185.156250
6804.205976	1.252238	13.774618	0.029243
6805.283944	0.575821	-129.199219	-130.664062
6805.285946	0.883984	-129.199219	-130.664062
6805.289943	1.258101	-129.199219	-130.664062
6805.291946	1.254333	-129.199219	-130.664062
6805.293947	1.252334	13.775673	0.165205
6806.273949	0.463656	155.078125	185.058594
6806.275950	0.774320	155.078125	185.058594
6806.277952	0.840395	155.078125	185.058594
6806.279951	1.253989	155.078125	185.058594
6806.281951	1.255017	155.078125	185.058594
6806.283951	1.252470	13.777170	0.028587
6807.359950	0.389431	-128.808594	-130.175781
6807.363954	1.006011	-128.808594	-130.175781
6807.365956	1.237033	-128.808594	-130.175781
6807.367959	1.254926	-128.808594	-130.175781
6807.369957	1.252084	13.772925	0.048601
6808.349981	0.362573	148.144531	186.132812
6808.351984	0.676595	148.144531	186.132812
6808.353983	0.980732	148.144531	186.132812
6808.355984	1.227171	148.144531	186.132812
6808.357983	1.255197	148.144531	186.132812
6808.359985	1.252262	13.774884	0.029043
6809.436069	0.301017	-134.082031	-131.640625
6809.438071	0.618060	-134.082031	-131.640625
6809.440073	0.924539	-134.082031	-131.640625
6809.442070	1.197769	-134.082031	-131.640625
6809.444072	1.256723	-134.082031	-131.640625
6809.446071	1.253272	13.785989	0.050342
6810.428095	0.589087	125.781250	186.328125
6810.430096	0.896690	125.781250	186.328125
6810.432098	1.179533	125.781250	186.328125
6810.434097	1.258490	125.781250	186.328125
6810.436099	1.254825	13.803075	0.211941
6811.514667	0.446941	-130.468750	-131.054687
6811.516668	0.758108	-130.468750	-131.054687
6811.522665	1.254716	-130.468750	-131.054687
6811.524668	1.252169	-130.468750	-131.054687
6811.528666	1.249381	13.743192	0.046919
6812.504730	0.584099	107.226562	187.011719
6812.506734	0.891923	107.226562	187.011719
6812.508733	1.175923	107.226562	187.011719
6812.510733	1.258070	107.226562	187.011719
6812.514731	1.252249	13.774734	0.177944
6813.594778	0.501746	-129.492187	-131.054687
6813.596781	0.811643	-129.492187	-131.054687
6813.598778	1.109536	-129.492187	-131.054687
6813.600781	1.257825	-129.492187	-131.054687
6813.602778	1.255675	13.812425	0.046528
6814.580774	0.482510	155.468750	186.035156
6814.584774	1.091758	155.468750	186.035156
6814.586776	1.255410	155.468750	186.035156
6814.588777	1.254315	13.797465	0.028797
6815.670838	0.406802	-128.808594	-131.250000
6815.672839	0.719164	-128.808594	-131.250000
6815.674840	1.021511	-128.808594	-131.250000
6815.676841	1.242961	-128.808594	-131.250000
6815.678841	1.255968	-128.808594	-131.250000
6815.680840	1.253054	13.783596	0.045175
6816.658893	0.709988	115.429687	187.402344
6816.660894	1.012696	115.429687	187.402344
6816.662894	1.239809	115.429687	187.402344
6816.664894	1.255495	115.429687	187.402344
6816.666894	1.252783	13.780608	0.028246
6817.747459	0.398517	-131.640625	-132.226562
6817.749460	0.711113	-131.640625	-132.226562
6817.751460	1.013697	-131.640625	-132.226562
6817.753460	1.240035	-131.640625	-132.226562
6817.757458	1.252552	-131.640625	-132.226562
6817.759461	1.250814	13.758949	0.047397
6818.735507	0.621451	119.531250	187.500000
6818.739507	1.199477	119.531250	187.500000
6818.741509	1.256270	119.531250	187.500000
6818.743510	1.252854	13.781398	0.027745
6819.826012	0.692243	-133.300781	-133.007812
6819.828015	0.995644	-133.300781	-133.007812
6819.830015	1.233475	-133.300781	-133.007812
6819.832015	1.255420	-133.300781	-133.007812
6819.834015	1.252601	13.778606	0.049236
6820.810612	0.455431	145.019531	187.109375
6820.814614	1.066368	145.019531	187.109375
6820.816615	1.252640	145.019531	187.109375
6820.818614	1.254671	145.019531	187.109375
6820.820615	1.252134	13.773475	0.028141
6821.900650	0.289635	-130.175781	-133.007812
6821.902652	0.607293	-130.175781	-133.007812
6821.904653	0.914167	-130.175781	-133.007812
6821.906652	1.191082	-130.175781	-133.007812
6821.908652	1.256754	-130.175781	-133.007812
6821.910652	1.253173	13.784906	0.049898
